Archivo de aceleración parte de la Red Nacional de Acelerógrafos (RENAC) Ecuador
          
Evento: 201604162358
Fecha del evento UTM (aammdd):                  2016    4   16
Hora del registro UTM (hhmmss): 23   59 20.00
Estación:                                      APO1 
Componente:                                        E
Frecuencia de muestreo (Hz):            1.000000e+02
Unidades: cm/s^2
_____________________________________________
4.2673 0.0783 -4.2440 -8.3632 -11.8550 -13.7410
-13.3340 -11.9358 -11.0751 -11.2303 -11.4325 -11.4279
-11.4371 -10.8060 -9.4096 -6.8494 -2.9387 1.4138
5.0278 8.0979 11.0256 12.3723 11.8790 10.2254
7.5990 4.0356 -0.2306 -3.9429 -6.2772 -7.1554
-6.1486 -3.8005 -2.0340 -1.2054 -0.7359 -0.3970
-0.1003 0.4316 1.7140 2.7255 3.1682 3.2592
2.4241 0.8275 -0.9933 -1.6023 -0.5826 1.0608
2.2679 2.9817 3.3390 1.7314 -1.9846 -7.4193
-13.4961 -17.6402 -19.1918 -18.6369 -16.1998 -12.0989
-7.5461 -3.1614 0.3947 2.0886 2.8502 2.9540
1.9407 -0.1878 -2.8253 -4.3208 -3.9185 -1.8111
1.5658 6.1802 11.2915 15.4594 18.3972 19.5501
18.9163 17.0422 14.3276 10.3967 4.8517 -1.2857
-7.9900 -13.9897 -17.2041 -18.4287 -18.5775 -16.8725
-14.2066 -12.4161 -10.9059 -8.6911 -6.2355 -3.6339
-0.6924 1.8899 4.8654 8.2175 10.6666 12.7528
13.9278 13.7110 12.9623 11.7763 9.5715 6.8275
4.7468 3.3137 3.0142 3.7399 4.1414 3.5360
1.8190 -1.2383 -5.1425 -8.7629 -11.9231 -14.0415
-14.1389 -12.7857 -10.9539 -8.5168 -5.6754 -2.1432
2.2617 6.5315 9.6421 11.7853 13.2239 12.2225
8.8419 4.0585 -2.4988 -9.5816 -14.9924 -18.8085
-20.7331 -18.9123 -13.6274 -5.7270 3.7957 11.9064
16.0816 17.7196 18.0475 15.8088 12.1213 7.9304
3.2123 -0.6516 -2.8407 -2.0911 0.2891 1.4319
2.5223 3.8405 4.2539 3.8993 2.2329 0.3956
-0.1620 0.4103 2.0794 4.0527 5.6456 7.5353
9.7749 11.2879 11.7316 11.3402 11.6985 13.0820
13.4311 12.2019 9.7114 6.9509 5.0015 3.3728
1.7183 0.5029 -0.6399 -1.9591 -3.3895 -5.1707
-7.3920 -8.9197 -10.1489 -12.3537 -14.6374 -16.4940
-16.6667 -15.4054 -13.6949 -11.2495 -8.5377 -6.0408
-2.8136 1.0043 2.9766 3.9338 4.8699 5.6342
6.8432 9.2417 12.7390 16.5137 20.5080 22.4987
21.3081 17.6372 12.3642 6.6943 1.6959 -1.0940
-1.4734 0.8434 4.9010 8.8089 11.3306 10.4597
6.8972 2.1322 -2.8396 -6.0989 -7.4282 -7.0479
-5.0875 -2.5842 -0.2784 2.4389 4.8963 5.1765
4.5665 3.5449 1.4569 -0.1774 -0.8490 -0.3814
1.3989 4.0998 6.5314 8.8767 11.8715 14.3334
16.0357 16.3563 15.5975 14.3187 12.3124 10.3318
8.8114 7.0062 4.7905 3.6982 2.6151 1.1544
-0.2337 -2.8261 -6.8902 -12.0989 -18.3016 -24.6890
-28.9791 -31.4374 -32.0180 -28.6025 -21.2083 -11.4532
-0.9705 9.2549 17.2104 20.9043 21.2194 20.6332
19.2516 17.2508 14.7658 10.7734 6.9830 3.8954
1.2699 0.4110 2.2069 5.9614 9.5928 12.6850
15.0248 15.7193 14.5581 11.8481 5.8741 -4.5185
-15.3026 -23.6264 -28.9169 -30.1773 -28.3244 -24.5745
-19.1067 -13.9715 -11.6767 -10.5248 -9.3544 -9.5069
-11.0585 -13.0860 -15.0941 -16.2461 -15.2237 -12.1058
-7.2122 -2.4619 2.0211 6.2744 9.4208 12.4532
14.0388 13.9212 12.9438 12.7995 13.0485 13.3424
13.8284 12.7683 12.8142 13.2248 13.7705 14.2491
11.5115 6.9532 1.4183 -2.9710 -5.3246 -5.2437
-1.9706 1.8114 4.8264 5.3905 4.1374 1.7581
-2.4006 -7.4578 -13.8506 -18.6111 -20.4052 -21.2311
-21.5195 -21.1796 -19.5261 -17.0182 -12.7575 -7.1207
-1.5399 4.6490 10.2252 13.7509 15.2428 15.3521
14.9359 14.7219 13.4835 10.6798 8.5035 7.3718
7.6997 9.3533 11.7629 14.7237 15.7378 13.7866
9.0400 2.5525 -3.6521 -9.1759 -13.3255 -16.3184
-18.5177 -18.4442 -17.2160 -17.1535 -18.1934 -19.7680
-21.4041 -22.6645 -22.4128 -19.9159 -16.4361 -13.3972
-12.3785 -13.9163 -15.7297 -16.2974 -14.6255 -9.6860
-3.5255 2.4549 7.4808 10.0695 10.7732 10.7576
10.8797 11.4300 13.3040 16.5955 19.3974 20.7055
20.2554 18.9922 17.7934 16.6726 16.0002 15.1633
13.7550 12.5120 11.5236 9.2554 6.0356 3.9695
4.0715 5.8445 6.9624 6.5591 4.7274 1.6894
-3.3457 -10.7004 -17.7217 -22.6998 -24.6033 -23.7306
-21.4707 -19.3312 -17.9725 -16.6818 -16.2675 -14.2584
-8.9000 -4.1579 -1.3331 -0.9712 -3.3881 -5.1501
-3.5287 1.5312 9.5850 18.8651 25.4252 27.7135
25.9800 21.0836 14.3545 6.6783 -0.1794 -5.2816
-8.5152 -10.1605 -10.6052 -10.7044 -11.7553 -13.7617
-17.4840 -22.6202 -26.8754 -30.3313 -33.0156 -33.9922
-33.0202 -30.8155 -28.4077 -24.4034 -18.5268 -12.1009
-5.3056 1.5392 6.9941 9.8667 10.2093 8.8047
7.2788 5.0869 3.4205 3.9956 4.1095 4.5513
5.4691 5.5857 5.9210 5.5618 4.3942 1.5363
-3.4860 -10.3584 -17.7746 -24.1418 -29.5260 -30.8617
-28.3318 -23.6540 -16.7770 -9.9625 -4.2017 -0.3921
0.9005 1.3166 3.4258 7.7048 11.9765 15.2083
16.2271 15.0016 12.7840 9.7782 8.0548 8.5435
9.9068 11.3307 11.9737 10.7482 6.4894 -0.0082
-7.4548 -14.7911 -19.9916 -23.5716 -25.3565 -24.0833
-22.2864 -20.3086 -16.4245 -11.6963 -7.3492 -3.9053
-0.9445 1.2796 0.9433 -2.1672 -6.8275 -11.6293
-14.1106 -13.8791 -13.1791 -11.5439 -7.9887 -2.3060
4.9660 10.8692 15.2815 19.8177 22.3210 21.4694
19.6331 18.1540 17.8426 19.0525 21.1130 22.7279
22.2172 20.8208 19.1994 16.3259 11.7648 5.9883
-0.2484 -8.3371 -17.7045 -26.9829 -34.4552 -38.6323
-41.2578 -41.3010 -38.3420 -32.3175 -23.4802 -14.6079
-7.4094 -2.6545 1.6613 5.1145 7.7712 10.6512
12.9974 14.8806 15.0129 13.9206 13.5210 15.7606
20.2850 25.3384 28.7843 29.4576 27.6782 23.2264
17.0614 9.1390 0.4532 -7.3618 -12.0680 -14.0009
-15.2456 -14.2452 -12.6983 -13.0161 -14.0772 -15.6416
-16.8533 -15.9926 -13.5572 -9.9470 -6.6665 -5.1351
-3.9124 -1.5836 2.3978 7.9427 14.8142 21.2539
26.2026 30.0113 31.3599 29.9847 27.1791 22.2680
15.2137 7.8581 -0.2361 -9.1231 -17.5646 -25.2325
-31.8560 -37.5534 -41.7967 -43.1278 -41.5909 -38.2783
-33.9147 -29.3996 -25.0498 -21.4193 -19.0520 -16.6644
-12.0078 -5.9861 0.2993 7.8772 15.7849 24.1942
32.2682 38.9513 43.5197 44.9216 44.1095 40.2659
33.9097 25.5574 17.6056 11.3569 5.0844 0.2679
-4.5623 -9.0793 -12.5858 -15.3904 -16.3330 -16.2669
-14.1632 -11.3916 -9.3568 -7.5205 -6.1728 -4.9933
-4.0581 -3.2966 -2.4110 -0.2026 3.8790 8.3840
11.8041 15.4484 20.4596 25.0106 28.3627 31.8058
35.5373 38.2951 39.0226 37.3994 33.1451 25.8749
17.9525 10.4132 2.9253 -3.5043 -8.9712 -12.5540
-14.2048 -15.8087 -18.2239 -20.0456 -21.4208 -23.7597
-26.5937 -29.9018 -34.1027 -38.1209 -40.1860 -40.8447
-39.7570 -36.1587 -29.2275 -18.5170 -5.8076 8.1274
20.3068 28.8529 35.0024 39.1592 42.1255 44.0326
44.4286 42.8329 40.3470 38.2580 34.9802 30.8436
26.3881 21.4072 16.3455 11.3636 6.4884 0.9370
-4.3416 -10.1079 -16.5807 -22.4325 -27.1571 -29.7955
-30.1997 -28.0042 -23.6920 -17.9698 -12.2944 -6.7963
0.1597 7.4206 14.1984 21.0974 26.5441 29.2982
29.7557 27.7310 24.2428 20.4479 16.1652 12.0891
9.8347 11.3670 16.5684 23.1376 28.5861 31.4955
31.5359 28.3730 23.4509 17.2261 10.4933 4.8942
-0.3963 -6.1572 -12.4499 -17.6531 -21.6281 -24.8076
-26.0716 -26.0469 -24.7194 -21.9332 -18.5121 -14.8339
-10.8369 -6.6184 -3.3407 -1.2637 -0.1126 -0.6317
-2.4717 -5.2543 -8.4328 -9.6822 -9.5885 -9.3625
-6.8464 -2.6399 1.1210 4.6845 8.6916 12.1668
13.8378 15.8230 18.5514 21.2393 24.7816 28.2174
32.1519 36.4135 38.5539 39.1410 40.1175 41.5303
42.1697 41.7416 39.8262 35.8567 30.4137 23.3154
15.6253 8.3644 1.9632 -2.4996 -7.0359 -11.9415
-15.7989 -18.1846 -19.1253 -21.1004 -24.5472 -28.0674
-29.9608 -30.4899 -31.5877 -31.6456 -31.8642 -33.2578
-35.2238 -38.3554 -40.5115 -40.7099 -38.4051 -35.1806
-32.6856 -30.9705 -31.2571 -32.3191 -31.4997 -29.8966
-30.2273 -30.2907 -30.2678 -31.5851 -32.6829 -34.5919
-37.4186 -42.4151 -48.7225 -52.9208 -55.4480 -54.6873
-50.8695 -44.9378 -36.8969 -27.9382 -18.3962 -9.6957
-1.5345 4.7004 6.9795 5.8358 1.4226 -7.5204
-18.1189 -25.9164 -31.4328 -33.7249 -32.4094 -28.0890
-22.0765 -15.2316 -7.1099 -0.7602 3.5501 6.5816
7.1493 5.1053 1.0789 -3.2314 -7.1724 -10.8911
-15.0949 -21.2746 -30.4335 -40.5827 -49.7141 -57.7311
-63.8007 -67.8648 -71.0405 -73.8268 -72.4231 -66.0569
-56.7280 -42.2373 -23.3242 -2.9542 16.6727 33.7412
46.4323 55.0326 61.7920 66.8271 69.1504 68.6322
66.6011 64.8198 63.9829 65.5511 70.5182 76.2220
81.1313 82.6020 79.3574 72.6374 62.3256 48.0949
30.2345 14.2335 0.7864 -11.9672 -21.7242 -29.3232
-34.9233 -38.9075 -44.8723 -51.9312 -58.8403 -66.4927
-71.9292 -73.6214 -70.0258 -61.4622 -48.8721 -33.7154
-19.6004 -4.3692 9.8404 19.7057 27.0319 32.0119
34.7908 36.6832 39.7937 44.3750 49.8088 54.1218
59.2607 63.2330 61.6345 60.6534 58.1592 53.4787
49.2144 46.0101 46.9453 47.7959 50.9855 54.5434
53.1406 48.2258 37.7156 23.7742 8.2490 -7.3275
-21.8743 -34.7960 -42.4814 -45.4358 -43.0841 -37.5511
-30.7017 -22.0159 -15.1729 -10.5475 -7.2964 -5.1688
-4.9814 -3.9002 1.0201 4.3079 4.6046 9.2281
20.8499 35.3021 51.9847 69.4721 86.0334 100.8686
109.1530 110.9737 107.1760 98.2927 88.5027 79.6736
72.5770 68.0802 66.9668 64.7400 62.0419 61.2960
62.9468 66.5442 65.5300 65.0679 62.6702 55.0381
48.5690 42.4848 35.6023 27.1342 22.0485 19.9999
19.4699 20.5052 19.5764 13.4747 0.5631 -12.0159
-24.1788 -35.2494 -42.6537 -47.9938 -50.1692 -52.6339
-51.9036 -49.1513 -46.1272 -37.1033 -23.8895 -11.1892
-4.1937 1.9842 10.6801 20.2404 30.9123 41.6458
55.7718 73.1067 92.9843 113.2432 132.5008 151.1108
164.8592 175.1334 180.8290 180.8611 177.1093 168.2683
156.7595 139.8334 120.6722 98.4593 71.5531 47.2797
19.7377 -8.8175 -38.5266 -67.5145 -93.9513 -124.3006
-146.8222 -163.1704 -182.7698 -201.3347 -216.6091 -230.3309
-242.4534 -254.0458 -267.6840 -277.6211 -283.5335 -292.6116
-301.0402 -298.3715 -284.9188 -258.0301 -216.7240 -178.8951
-150.4593 -129.5821 -114.3905 -101.7756 -97.2697 -98.5990
-98.6339 -92.4624 -83.0775 -71.6431 -50.0053 -17.3530
21.7731 53.7099 77.5120 99.5347 116.1199 130.1642
140.5513 152.1309 165.2767 176.3390 180.2056 167.4373
138.9400 99.4767 60.7695 19.3064 -28.7260 -76.6518
-116.4558 -143.8122 -166.6939 -179.3023 -187.1696 -195.9657
-195.7471 -193.9245 -192.9452 -191.6986 -189.2321 -182.5361
-181.5182 -184.9659 -182.2816 -175.5140 -170.0701 -161.5551
-146.2707 -125.2493 -100.8445 -78.9569 -58.0917 -40.6603
-25.7682 -11.1194 -2.1130 4.0042 10.3824 20.6887
32.0294 44.9189 62.4476 76.6159 87.6212 101.0004
112.5386 121.3337 131.8320 141.0231 149.9440 156.9726
161.5456 163.6622 158.7235 149.7731 134.3821 114.7552
90.7463 60.3005 31.3788 2.1805 -25.6683 -49.5053
-71.5033 -94.4474 -118.6427 -139.9691 -158.1776 -170.6896
-177.1946 -174.8052 -162.0874 -147.0859 -134.0228 -120.0217
-104.4856 -89.3233 -72.5011 -53.1608 -30.0807 -5.6594
19.5216 48.0079 74.6367 99.0672 124.3291 149.7930
174.7572 196.4851 213.9430 224.7555 224.9989 217.0306
199.3466 171.1524 137.5042 99.6808 61.3043 29.5246
3.0749 -25.9038 -54.4701 -76.5002 -93.7073 -108.2256
-118.7065 -125.9620 -132.5037 -134.8435 -131.6934 -125.4999
-115.3783 -100.7507 -83.3699 -59.4199 -29.0173 2.4280
35.1429 67.1568 98.8051 129.6661 158.1349 184.4542
205.5049 221.3874 231.7856 234.1097 229.1196 219.4876
205.6739 185.2074 159.6157 134.5357 109.7166 81.8476
49.0299 15.2714 -17.5142 -51.4802 -78.5858 -97.6184
-114.1191 -127.3963 -135.3904 -139.4554 -143.3661 -143.6536
-136.7693 -122.8987 -104.2492 -82.3184 -54.4485 -26.8707
-3.6988 18.5959 38.2439 53.4263 67.4936 83.9934
98.1534 110.4017 120.7989 126.1188 130.2380 131.5397
131.4515 126.6580 114.0725 94.2059 64.1670 34.3817
3.9212 -28.0027 -53.3270 -81.9006 -110.3263 -128.0865
-139.4520 -143.3058 -136.2101 -113.7327 -78.2941 -37.0937
10.0999 58.1856 97.3475 123.0466 142.2059 160.3134
176.8003 191.8588 205.0974 215.3182 220.3992 220.3818
215.9006 209.6382 202.8935 196.8524 192.3217 187.4538
180.5657 168.0253 149.5164 126.3949 96.9707 60.8926
21.3706 -20.4802 -64.5064 -109.9922 -156.5787 -200.6159
-240.4282 -271.9378 -293.9109 -306.7472 -308.2225 -308.1803
-305.8432 -295.8217 -282.3865 -264.8882 -240.7085 -205.4600
-158.7725 -102.8159 -42.0392 19.1537 82.7856 146.1796
200.6158 248.6243 283.2646 297.5193 303.7854 299.3106
287.3820 279.1068 268.3807 250.0022 218.4540 172.6834
124.4617 71.7388 19.7553 -20.9132 -60.6438 -98.7925
-131.4990 -155.0026 -172.6177 -189.4381 -196.1718 -197.5553
-196.0791 -192.2520 -185.4430 -171.8939 -155.0670 -129.0133
-97.5175 -65.7250 -37.7751 -13.2528 13.0288 32.8182
51.0148 64.7972 69.6008 71.9140 68.8181 65.9767
66.4333 72.6525 82.1504 84.2403 84.8861 82.6832
73.8182 62.7945 53.3333 47.2822 36.7049 21.6400
7.1584 -8.9188 -28.4658 -50.4904 -68.4968 -81.2614
-92.1887 -94.1776 -91.0450 -84.8919 -70.4306 -54.9881
-35.8279 -12.6872 5.7978 18.3713 29.3978 40.6301
51.2083 61.7994 71.4497 80.9586 91.3155 101.4536
109.0628 114.4929 115.1534 110.2993 104.0864 94.7860
85.2496 75.5771 63.7927 50.3373 30.3218 7.0644
-18.2765 -45.1102 -71.8492 -99.1432 -120.3768 -140.6789
-163.8077 -186.4780 -206.8150 -223.3525 -239.6457 -252.7649
-260.8692 -262.2857 -259.9919 -252.6611 -226.8526 -187.7486
-139.4204 -82.2659 -29.7542 17.0820 59.3113 92.9889
123.1600 149.3681 167.3910 178.4616 182.4972 184.9950
187.9824 186.5668 181.5684 172.9111 162.0095 148.5807
132.2214 111.2864 84.7549 55.1359 22.0655 -10.6962
-44.5465 -79.6967 -112.8801 -145.4608 -175.7936 -200.1791
-216.9297 -225.4061 -221.7866 -205.1150 -178.1362 -141.4749
-102.8219 -71.3353 -45.8235 -24.3336 -5.1753 14.8356
38.1316 64.0898 90.6579 117.5881 148.3554 182.3609
213.6353 242.5019 268.2966 286.4013 293.9296 295.6172
291.9536 280.2004 262.4898 233.4964 196.7137 161.4120
121.4609 81.1287 50.3815 11.9747 -38.6592 -84.3325
-128.6747 -177.7038 -223.0519 -259.8217 -286.7234 -302.1805
-311.6224 -308.7204 -292.7010 -277.6361 -258.0157 -234.9806
-212.2607 -181.4823 -141.6333 -100.2602 -61.4630 -24.0153
13.7990 53.8612 94.0979 132.8868 164.0556 189.1815
209.2300 221.3663 229.3511 231.4171 230.4774 229.4246
226.7394 221.3249 211.8251 191.9355 162.2568 129.7045
91.6844 54.4829 21.1673 -12.9090 -40.3380 -55.1218
-62.5996 -69.0586 -70.6819 -70.3879 -73.8071 -77.8960
-83.0349 -85.9737 -85.5006 -78.5263 -60.6659 -37.8109
-11.6203 18.2072 47.6967 74.0040 97.2852 118.9322
139.1323 156.3165 168.3692 176.1960 177.9856 171.2813
155.8452 134.6860 109.2037 81.7499 62.3720 47.2097
35.1258 27.4036 18.1611 7.1043 -10.0083 -28.7322
-45.5021 -63.2751 -78.4181 -87.9684 -93.1532 -95.6979
-92.2227 -81.4993 -69.0544 -59.0338 -51.0453 -42.5928
-34.5648 -29.5683 -23.6393 -17.9520 -14.6017 -12.3988
-13.4736 -15.9981 -22.4075 -27.8900 -32.2177 -39.5090
-43.1377 -46.7737 -49.5324 -51.8263 -53.3558 -47.8127
-38.5537 -25.1258 -7.7487 8.7704 23.2969 34.8195
38.5575 31.6474 18.8010 6.5325 -8.8411 -27.1727
-43.5641 -59.7736 -72.7587 -81.9167 -88.1644 -88.1516
-80.6867 -66.8059 -46.8364 -22.2589 1.8859 22.2523
36.7614 41.4813 38.4103 31.7639 18.9910 5.7910
-1.3166 -7.1657 -8.0200 -1.1577 8.5900 22.9476
39.0753 51.4936 60.0508 63.0804 57.4602 44.0929
24.1877 2.0777 -16.9668 -32.4607 -41.9063 -47.4549
-50.9788 -50.5636 -46.6520 -41.3955 -34.5489 -28.3884
-25.7979 -24.2068 -26.2517 -30.2947 -34.2531 -41.6124
-50.2073 -57.3185 -62.6798 -63.8189 -58.2179 -45.1088
-25.9468 -3.1267 20.1941 41.3000 60.8874 76.7726
89.0898 93.2467 91.1512 88.9014 80.2294 70.1555
58.1396 41.9769 27.0360 14.3045 4.3464 -2.7851
-3.8471 -4.0391 -3.7607 -3.3630 -7.3132 -12.0956
-19.7875 -26.8271 -30.7800 -32.3197 -28.9529 -23.3115
-17.3035 -11.8201 -7.1791 -5.9876 -7.6146 -10.4312
-12.8794 -13.0787 -10.9603 -7.2720 -5.4962 -2.8956
0.8112 4.2515 7.5605 9.3040 9.2388 6.6124
1.6664 -5.6240 -15.1623 -27.3381 -38.9746 -47.8790
-53.1925 -53.9403 -52.6753 -48.2750 -43.8058 -42.7475
-41.4826 -40.6540 -41.1592 -41.3604 -41.5166 -38.9821
-31.6458 -21.0253 -7.5873 5.5842 18.0512 30.8268
42.4982 55.5044 68.1284 78.2060 85.7453 88.6032
87.1756 79.2559 62.8544 40.3622 14.9975 -9.5809
-31.6983 -50.6426 -66.8751 -79.8106 -89.3287 -97.2282
-102.9596 -107.6043 -112.0533 -116.7614 -120.9844 -123.0569
-123.1589 -118.0181 -108.3668 -96.4731 -79.3505 -59.5886
-39.3333 -19.1865 -0.8365 17.6218 33.7643 47.7507
59.7978 66.8870 71.6548 73.9082 72.4705 69.7348
66.9209 64.9706 64.5738 63.6671 61.0792 54.3115
43.2988 30.1190 13.3775 -3.9509 -21.5127 -36.5767
-47.3212 -56.9477 -62.9391 -67.0923 -70.3333 -72.1715
-74.1779 -75.9812 -77.7588 -78.9402 -79.5961 -78.2457
-75.1563 -72.1266 -68.5669 -64.7095 -58.7043 -50.2151
-39.9621 -27.5677 -13.6236 2.2213 19.0995 37.5873
57.2059 77.1699 96.0738 112.1851 126.9100 136.2802
139.4091 136.6403 126.0309 110.9099 91.5256 68.0679
42.2328 18.1945 -2.8397 -22.8295 -38.1654 -50.4330
-59.7968 -66.4423 -71.5582 -74.6155 -75.6720 -72.5743
-68.2585 -59.5571 -48.5554 -35.7182 -14.6977 8.6965
34.7126 62.8480 91.1845 118.1698 140.4690 160.6682
176.3201 184.6936 187.6507 184.1708 171.3823 151.2529
128.7102 105.0257 76.9224 49.7057 27.9714 5.7420
-15.6882 -35.4493 -54.5268 -71.1690 -86.1623 -99.3550
-110.4495 -118.7191 -124.7951 -129.3562 -131.7033 -131.2422
-127.2552 -117.8961 -104.6905 -91.1515 -73.6201 -55.2086
-40.6049 -26.0131 -12.1424 -0.1412 9.5266 15.5015
19.0869 20.2159 18.4705 16.6791 16.4816 17.9037
21.2687 27.4704 35.2431 41.5459 47.0835 50.2262
49.9910 47.3811 42.5895 37.7206 30.0444 20.8184
13.1495 3.8712 -4.2846 -10.6049 -15.7952 -18.3013
-19.5047 -17.1300 -13.8275 -11.6972 -8.2853 -4.3894
0.2131 5.1186 10.5230 15.2053 17.9778 19.3108
17.9640 13.6565 7.6660 -0.0727 -9.4521 -17.3525
-24.0228 -28.6473 -28.8283 -27.5330 -25.3631 -21.8558
-18.7902 -16.0453 -14.2117 -13.8434 -15.1864 -19.7650
-24.9526 -30.5563 -37.0769 -40.7469 -42.5603 -41.2779
-36.7260 -30.4948 -21.1844 -12.9928 -6.8020 -2.2244
-2.5956 -7.7005 -16.2155 -27.4119 -40.3456 -52.0565
-61.2090 -67.8600 -70.3256 -67.4209 -60.0001 -50.4792
-40.2216 -32.2928 -25.1724 -17.1416 -11.7004 -6.3576
-1.6753 0.9043 4.8517 7.8033 10.2772 15.2985
20.9280 27.7434 35.6043 43.9630 51.9203 57.7308
61.7544 64.2697 65.1084 62.1935 56.7064 47.1314
33.3581 19.2513 2.4557 -15.1952 -32.2600 -50.2333
-66.6054 -80.5652 -92.0602 -99.3819 -101.1383 -95.5328
-83.7576 -69.8777 -55.8353 -41.3611 -24.3845 -8.4129
4.8376 17.6160 29.1918 41.4944 53.6389 65.5261
78.2999 89.8804 99.6226 107.2455 110.9964 109.4420
103.2053 93.9481 82.8949 68.3950 50.8865 33.6490
16.5392 0.0338 -13.8754 -27.0534 -38.6311 -49.0670
-60.5602 -71.0484 -82.0822 -90.5852 -97.1784 -103.6218
-105.4517 -106.1527 -103.4041 -97.0829 -92.9398 -89.0787
-85.9682 -83.3749 -79.1408 -73.2643 -65.8783 -59.2779
-53.0283 -46.3663 -41.1346 -34.9742 -29.4302 -26.4262
-22.5137 -19.5097 -16.8567 -12.0439 -6.4494 1.3812
10.4004 17.5962 22.5707 24.7635 24.3317 21.6208
18.6884 16.1438 11.9547 8.6568 7.1713 6.6477
7.3872 9.4826 12.9082 16.0132 19.9542 23.6316
25.8611 27.7857 27.5698 24.0881 20.0598 15.0164
9.4375 5.8676 1.9468 0.7856 -1.1325 -4.3992
-5.6605 -9.9754 -12.1646 -14.2839 -18.6263 -22.9670
-29.1476 -33.9678 -39.1866 -42.4129 -43.3720 -44.4533
-43.3931 -40.3653 -36.1009 -32.7470 -27.7229 -23.1444
-20.3875 -16.9628 -16.0690 -14.7884 -13.2405 -11.9893
-9.8038 -9.7873 -9.8167 -10.5572 -14.8904 -19.0712
-23.5560 -30.7004 -35.2458 -37.9375 -38.6641 -37.2476
-36.3859 -32.7049 -28.4452 -22.8800 -14.6352 -5.2053
6.2420 17.5073 29.2991 41.7017 53.1104 64.6330
77.4316 90.3091 101.6755 112.3089 120.0466 125.6017
129.2992 128.1169 125.3205 120.4039 111.6446 100.0688
86.3019 71.0377 55.2764 40.3447 24.2941 10.0477
-2.4863 -14.8807 -24.2977 -33.1921 -41.6657 -49.6726
-56.7609 -62.7027 -67.4485 -67.7204 -66.6493 -63.2494
-56.8850 -49.8133 -40.2612 -29.7941 -16.4453 -2.6325
10.2910 23.6711 35.2341 45.1885 53.3479 58.9351
61.4192 62.6207 60.3269 57.9595 56.9076 54.2794
52.9997 52.2611 52.4880 50.8308 46.5774 41.0637
31.5667 21.4000 10.3910 -3.3658 -16.7018 -30.5770
-43.5511 -56.0383 -68.8525 -79.8992 -91.0599 -99.7852
-107.1546 -113.8892 -117.8908 -120.5880 -121.5783 -121.2513
-118.3750 -113.7294 -106.3453 -93.9500 -79.6761 -63.0468
-43.5899 -24.6152 -6.3222 11.6631 27.3572 41.3151
53.9143 64.0277 72.0383 78.9520 84.5438 88.6630
93.4418 95.2672 93.3766 90.6050 83.7427 74.5765
63.8779 49.9181 35.9427 23.1579 10.8646 -0.3567
-10.6630 -19.4738 -26.8606 -33.8653 -41.1052 -47.6551
-52.5451 -56.3097 -56.9427 -54.4623 -48.0897 -38.2602
-27.0297 -13.6441 -0.5378 9.6123 18.9623 28.8625
36.6536 44.2388 51.3969 56.9694 62.1065 65.8013
67.3740 65.9234 61.6783 54.3576 46.8018 38.4421
29.9758 23.9596 17.9130 12.4939 7.2769 2.5119
-1.5706 -4.0629 -5.6595 -6.0270 -5.9112 -7.8404
-8.9409 -11.7796 -15.0013 -18.4499 -21.7736 -22.2127
