Archivo de aceleración parte de la Red Nacional de Acelerógrafos (RENAC) Ecuador
          
Evento: 201604162358
Fecha del evento UTM (aammdd):                  2016    4   16
Hora del registro UTM (hhmmss): 23   58 45.00
Estación:                                      APED 
Componente:                                        N
Frecuencia de muestreo (Hz):            1.000000e+02
Unidades: cm/s^2
_____________________________________________
21.2316 5.4335 0.1335 13.3335 16.8256 4.8513
-13.0413 -10.7143 -2.5070 -2.1412 10.1117 -1.0705
-12.2536 23.9713 9.8142 -30.3850 0.8130 16.8229
-12.2131 -15.6944 1.4646 3.3156 -7.6196 -13.2359
-14.1750 -8.7668 -5.8803 -22.5012 -14.6238 20.6395
8.4750 -8.1784 5.1189 -8.3135 -15.7809 -12.5051
-29.4847 -8.0594 33.1672 25.2519 17.2834 12.5179
-5.5414 13.8030 29.8021 11.6248 -3.3912 -23.7413
-44.5916 -29.9696 -0.7614 2.8452 4.9820 40.7905
64.6644 40.4976 32.8626 26.4235 -8.4478 17.6682
36.3557 -22.9933 -39.4512 -33.6546 -43.8788 -9.0751
-18.8802 -70.2256 -54.0534 -36.6015 -27.9716 -11.1388
-34.5306 -25.7609 22.6086 23.4260 18.9011 29.3587
2.9722 -15.4151 1.9133 11.3057 10.6208 17.7214
25.3609 32.5787 32.6517 12.5710 21.0279 63.2819
59.7654 19.6779 -1.8060 -20.2402 -28.6881 -11.7787
-5.4595 -3.8860 -4.4096 -23.8513 -15.9558 10.7037
-1.1517 -8.8101 -0.9039 -28.0527 -43.0632 -24.2758
-34.8839 -39.6513 6.7555 6.9493 -27.1083 6.9871
26.0855 2.3243 18.7091 22.6618 -15.5296 -15.4863
21.0225 26.2864 20.2916 26.0756 7.6008 -16.9048
-18.2449 -13.8957 -4.4564 24.3813 22.0589 -11.3101
0.5624 17.7115 -1.2481 5.0576 20.7035 -13.2711
-23.8775 19.8365 10.3828 -37.1847 -44.9197 -57.4240
-70.7195 -24.3929 25.6646 4.9945 -19.6625 -1.7033
-0.7624 9.0238 46.9466 51.5211 54.0697 95.1278
100.8712 70.7078 60.3106 31.1683 2.6397 6.0534
-14.8330 -56.4768 -66.4009 -53.9129 -42.9128 -34.5387
-32.2154 -5.5776 28.9134 24.6192 23.9000 15.6981
-34.8623 -43.9780 -17.7655 -59.2886 -96.9798 -78.3014
-81.9558 -59.3976 0.7588 9.5348 -4.5123 6.1588
11.1227 9.5203 7.2736 -16.0469 -7.6278 30.7465
19.9518 -0.9427 13.7993 -16.8616 -64.2633 -29.4704
-21.7020 -52.7783 3.6913 76.2232 87.9902 95.3756
88.0308 18.9677 -32.0577 -15.2439 -16.2262 -69.4065
-88.7986 -44.1853 -10.3540 -16.4488 -31.0637 -32.2155
-41.4655 -69.4020 -86.8358 -80.8076 -77.0965 -71.7676
-31.0547 -21.7128 -39.6666 -13.7452 1.4383 2.1503
30.0796 82.2108 103.4928 72.8986 51.1588 31.5792
25.2626 70.7474 100.0385 84.1997 108.5314 141.5697
131.1788 145.0871 165.3228 127.9786 53.8444 -0.7543
-65.8602 -122.6696 -80.0939 -31.9271 -50.7173 -63.8470
-65.6295 -88.7590 -84.6603 -61.8535 -81.8648 -84.9037
-62.6420 -75.0886 -88.2129 -59.0985 -29.7804 -28.7594
-0.4840 41.3807 33.5483 19.8247 33.1590 38.9276
54.9177 102.2617 114.3640 77.5497 76.6395 82.6929
35.2588 3.4399 9.9502 -1.9313 -14.0436 -9.5258
-15.0682 -28.8441 -45.4200 -32.7184 -5.6029 -3.8509
21.7461 78.2824 93.5912 73.8818 94.2527 116.0312
95.5225 59.6499 -20.5593 -99.6456 -148.5749 -210.2823
-189.4149 -62.6664 74.6073 195.9079 269.9340 267.6908
206.1087 141.6769 41.0508 -101.6337 -124.0485 -47.1341
18.3449 131.1634 229.4652 183.8912 112.1281 105.9125
25.8123 -187.9405 -275.5540 -232.7809 -245.1113 -95.1000
127.6072 206.7449 247.0910 264.7430 213.6536 69.1585
-119.7975 -289.3795 -377.5941 -338.4637 -239.5256 -125.0642
25.4076 144.4805 219.1879 259.2790 187.3798 56.4605
-33.9459 -91.5717 -106.3596 -74.6507 -60.8280 -26.1171
58.8028 117.7426 104.5904 67.6571 77.7335 63.1529
-14.8024 -80.5040 -116.5190 -167.6679 -211.2592 -153.9758
-65.8243 -34.8182 19.0577 53.7893 -16.0533 -72.5383
-56.3165 -65.1168 -82.8490 -66.4930 -61.0389 -22.5276
76.5565 121.9918 72.9364 40.9751 69.1026 44.5312
-20.7171 9.7158 47.8107 28.9530 45.2846 97.3510
139.4319 164.2485 211.2185 242.4192 217.3250 152.8329
35.9103 -88.0913 -147.4520 -140.5524 -90.3479 -9.7746
45.4649 33.4238 6.3678 10.9964 14.4183 -37.7229
-117.0831 -122.4832 -73.5972 -62.1248 -43.2265 21.4234
35.1163 -34.4362 -122.6256 -173.5762 -175.6048 -155.1772
-107.4754 -71.1901 -53.9013 -31.7767 -47.8876 -86.8170
-127.8030 -149.6185 -126.3701 -68.8316 50.3323 222.0627
357.4979 387.8784 348.5308 297.0539 217.0655 83.9626
-84.6595 -199.2886 -192.4944 -90.9229 48.4559 162.6605
211.6762 190.0545 80.5677 -138.4066 -346.9820 -403.6985
-355.2857 -273.5868 -201.9084 -181.8944 -161.9462 -128.1383
-123.1113 -148.6957 -197.7277 -234.3032 -234.1148 -211.3530
-189.1815 -156.9814 -77.2444 60.9782 217.2132 344.9756
413.0473 398.0801 308.3325 143.2052 51.8445 136.0217
198.9169 146.5658 87.8909 104.2551 122.4297 58.1781
-15.5911 -26.3362 -13.1884 3.7732 67.9355 142.2644
217.5530 282.9022 288.5825 210.9679 40.8614 -159.1705
-312.0044 -302.7922 -173.0572 -28.1638 164.5052 374.4955
496.5712 523.8273 520.0774 442.0581 261.9140 -59.4934
-437.2730 -623.9247 -560.3094 -453.3911 -435.9140 -371.0262
-246.6326 -65.3629 163.9221 299.7196 248.4950 65.4689
-64.1553 -148.2596 -250.7223 -344.3081 -335.6385 -189.5898
-22.1528 112.4416 211.1724 291.9855 268.0692 78.9302
-129.4424 -216.1024 -164.8355 -129.8074 -147.8531 -72.6051
86.8870 231.2207 304.6898 308.3919 252.5495 142.4238
39.9972 3.8759 2.2654 -35.1896 -78.5368 -109.5798
-143.6959 -136.7304 -100.8561 -70.3034 -36.7478 24.9245
47.0896 -21.7815 -78.1817 -134.9614 -253.9559 -357.2279
-386.1179 -401.5177 -416.5129 -418.6713 -423.5306 -401.1761
-327.1915 -161.3118 6.4948 150.1003 287.6101 354.5571
387.5269 342.4864 225.7746 65.9961 -44.8281 6.3334
71.9233 131.9815 231.3360 293.6418 309.0065 293.9329
257.6476 208.8283 92.7556 -145.5938 -453.0848 -693.5935
-687.6194 -476.5450 -230.9075 117.8308 486.1153 674.7497
797.0786 811.7998 627.5372 311.1973 -102.9641 -386.0728
-571.0131 -764.1021 -640.3529 -290.6792 -96.1843 -35.7601
-24.8114 -71.4209 -181.6674 -272.1783 -286.5670 -328.6245
-379.7599 -362.9560 -287.6664 -198.3848 -91.3178 65.7374
239.3423 378.1687 409.3667 461.3186 457.6642 374.4431
364.2847 328.9628 389.5438 406.2170 363.6386 385.9939
326.0213 258.4497 163.4498 28.2454 -39.0505 -71.4092
-104.2645 -200.8721 -399.8090 -454.8638 -369.4879 -419.2021
-342.8284 41.5994 247.3279 247.3576 265.3142 206.5546
5.1708 -395.8023 -663.6716 -565.8420 -418.1090 -363.3814
-280.5343 -235.0234 -293.2584 -354.2260 -355.6950 -322.5972
-326.5112 -316.0671 -248.5379 -122.6978 54.0965 179.8013
264.3922 303.2883 324.7487 371.0410 350.9009 322.9517
344.0760 377.3864 425.7930 486.3757 536.4251 504.0358
375.6138 260.1322 196.0501 143.2177 80.7037 19.9344
22.7921 68.9078 66.6431 -12.4207 -115.4629 -144.3674
-96.2258 -77.3248 -34.0326 71.8430 101.2440 42.4592
-62.1836 -150.7813 -190.2082 -229.2268 -234.5899 -210.0419
-235.7498 -324.7034 -411.1499 -445.7995 -441.8819 -406.0851
-315.8734 -209.7707 -147.3269 -117.6835 -73.9606 -50.7716
16.1998 133.5784 237.8417 367.6714 450.9474 595.2127
628.2130 707.0056 812.6901 632.0333 611.5903 394.2615
110.9860 48.1322 -112.2312 -186.4294 -220.6645 -190.1063
-169.8959 -178.1870 -200.3287 -240.9263 -206.8913 -111.2039
142.3201 318.6376 220.7296 -3.3672 -163.4288 -112.7332
33.8490 153.1922 146.7017 -17.5676 -36.7633 78.2443
70.6065 42.3933 44.3417 -20.8146 -155.0296 -311.4755
-459.9746 -522.3679 -410.4623 -270.4075 -253.6279 -280.4983
-268.9421 -229.1061 -162.7637 -32.0410 103.4041 166.1921
211.8554 250.1504 270.9367 300.1250 254.6970 98.9369
-33.8461 -73.1468 -67.2574 2.6816 151.2663 282.7398
321.0700 275.1183 226.4216 218.3143 202.1368 136.4784
17.8643 -96.2015 -188.2093 -310.3238 -477.5427 -649.9427
-664.6216 -443.1022 -189.1835 -7.2983 122.1997 37.4574
-229.5910 -406.1356 -461.8005 -459.3276 -394.6587 -278.0489
-136.9469 -41.9957 53.6656 183.3150 278.5249 319.2162
288.3768 236.5322 200.4749 166.0263 137.9690 132.3815
168.2396 214.9843 259.2192 322.0081 387.0491 418.3624
431.8859 441.3198 446.7198 427.0149 375.4722 341.9527
313.1564 309.3515 325.2632 327.9948 348.8343 363.4960
351.3928 278.7546 157.1323 12.4570 -144.6585 -264.2478
-362.0152 -415.8696 -408.8546 -373.9986 -360.6346 -398.0834
-400.2913 -429.9095 -575.8789 -637.7044 -529.3018 -404.6982
-325.2127 -274.6541 -253.1666 -213.9704 -146.6331 -118.9003
-92.3092 -20.5056 36.3975 66.3140 71.4563 40.6864
-25.0134 -90.5321 -106.3978 -120.2962 -140.7762 -135.0481
-65.4298 88.6477 231.0691 345.3232 442.1921 506.0048
534.0332 498.0913 432.6844 357.2795 279.1169 211.7102
145.6851 78.5686 -4.9616 -88.0060 -160.5333 -220.6673
-206.6066 -171.3028 -152.6766 -112.4224 -70.1441 -0.2897
33.9426 46.3198 91.7992 70.1594 12.1794 -11.9297
-29.1932 -27.9442 -24.9603 -39.2183 -27.2638 26.0994
129.8626 295.4720 439.6831 335.6820 10.9907 -145.2290
-73.1640 -28.6877 -37.6078 -11.0186 61.5295 118.3875
145.3048 204.7006 269.7398 253.7001 159.6601 71.5608
5.4095 -75.8415 -166.2470 -199.0005 -194.6377 -218.3151
-234.6324 -238.8987 -257.4095 -287.8676 -302.4699 -300.0060
-289.9773 -256.5308 -184.2567 -89.0731 -51.2025 -56.4088
-62.4775 -119.8240 -252.7575 -356.5819 -339.5122 -308.1412
-239.1475 -78.6803 37.3510 109.8954 180.0156 257.5393
327.1638 306.6082 220.3392 112.3611 12.6308 -64.7342
-138.0050 -171.5795 -131.7398 -52.5643 18.7473 118.2532
224.4082 292.3547 383.8056 492.0036 535.2723 485.9673
332.9297 56.6656 -209.3608 -338.7921 -364.9938 -258.6721
-70.1667 146.7719 350.5582 367.2378 252.1870 107.9794
-9.5073 -11.3061 10.4310 9.2414 27.5188 36.9841
8.1113 -14.0161 -15.6770 -34.2977 -74.6340 -156.9628
-220.9918 -253.8300 -296.0650 -294.3744 -236.0437 -143.8025
-59.5577 32.4033 109.3276 123.8668 119.3094 101.6070
71.3426 1.1260 -82.6322 -96.5504 -74.4537 -81.1281
-120.7622 -111.8466 -21.5493 48.0897 78.4108 94.9425
81.8633 68.8139 78.4739 80.2952 64.2799 51.8865
42.8735 27.5196 3.6566 14.1980 60.5660 63.1786
10.7590 -47.2544 -82.7475 -105.8383 -152.3883 -189.7848
-177.4229 -160.5884 -181.5135 -205.9489 -158.8319 -86.9751
-42.6177 42.2670 132.7310 146.6096 126.9047 142.0666
144.4152 65.7632 -51.2071 -156.2698 -249.9710 -310.0365
-259.1020 -139.6489 -49.6381 40.9476 62.3305 -54.1532
-141.1656 -105.7842 -34.1941 26.9879 36.9868 29.3878
38.1205 -9.9535 -58.9160 -64.7460 -45.0203 4.2775
22.1953 -14.0531 -46.9678 -24.9153 -37.0149 -112.4739
-149.0629 -170.6964 -208.7030 -279.6514 -286.0887 -128.4045
-19.5513 -18.6745 -2.5113 27.5908 57.4505 40.0968
-1.1685 -6.1594 22.6846 71.8049 105.1991 138.6664
199.2951 256.8588 276.6691 268.0139 267.9941 255.4970
195.6668 107.1430 13.9150 -22.4794 48.6502 173.0023
273.7717 330.6595 367.1980 389.0280 366.3851 270.5679
169.4552 147.1332 158.6019 150.0675 98.9195 9.3323
-91.7957 -200.1523 -265.9432 -267.9321 -217.8908 -111.5249
-47.0886 -81.8951 -121.9672 -149.3738 -204.3078 -261.7598
-305.8991 -296.3679 -218.0737 -87.1734 50.4778 114.0400
116.2767 50.7139 -50.4222 -116.6402 -135.7638 -88.6559
1.7811 100.1388 160.0466 186.8043 183.5050 186.4654
180.4174 113.1883 109.5844 103.8960 63.1037 53.1391
30.7873 40.9809 56.9782 72.3807 133.4637 197.8459
218.9648 223.7970 248.3072 289.2048 277.0620 137.8687
-53.2980 -174.3400 -191.8784 -193.8655 -216.8707 -208.0659
-151.8549 -72.1368 2.8995 56.8286 85.6375 103.7031
68.2289 -4.7193 -96.4865 -238.9043 -368.7177 -413.2284
-377.0584 -330.6652 -290.1271 -226.6974 -157.0954 -116.9863
-100.5185 -91.1604 -90.1204 -69.2259 -18.0203 79.0289
192.7612 256.3765 260.2193 161.8264 -9.7030 -122.7468
-133.0395 -89.7356 -5.4295 129.6731 237.0565 271.9431
260.7240 216.8712 165.9215 115.4422 57.4423 -11.2955
-90.2439 -121.9799 -128.9462 -192.7922 -282.6516 -349.0489
-348.8083 -306.8337 -265.3728 -213.3226 -162.9623 -120.2775
-80.0287 -25.6093 55.0649 145.6623 233.1551 309.6379
317.3891 240.1963 90.1092 -77.5225 -185.3690 -253.1001
-222.1959 -103.7701 46.8639 224.3116 318.7346 298.6575
190.3433 54.0267 -23.5050 -36.4175 15.2180 113.6920
191.0300 228.1796 252.6473 238.8426 183.7464 132.3389
101.6167 89.2089 85.0219 91.7062 106.0678 114.8302
123.2006 135.3940 134.7703 95.3380 31.4001 -44.6942
-151.3746 -262.9017 -314.6147 -293.2678 -293.8762 -326.2151
-293.2751 -240.8401 -215.6568 -142.5184 -11.8488 105.3099
203.5811 303.0437 344.3938 280.4423 151.7238 22.0636
-114.6135 -263.3171 -365.8601 -387.9658 -342.1710 -274.1875
-210.4334 -162.0810 -147.7590 -173.5650 -179.1255 -45.9370
179.2611 303.5682 279.2581 261.5945 224.4440 0.0480
-188.9270 -175.0214 -160.4912 -188.8558 -189.5047 -124.7980
21.7716 174.2639 261.9540 293.3007 293.9081 259.8822
210.4167 124.9192 -41.1336 -253.8374 -392.7539 -398.5847
-316.3793 -169.3699 -23.3230 60.2017 45.7301 11.8646
63.5867 72.9745 52.4315 129.4586 233.7336 313.7797
354.6486 305.1705 138.4833 -92.2690 -236.1431 -245.8806
-204.7928 -155.7707 -117.9840 -74.5630 3.9006 52.6487
-0.9326 -83.5949 -83.2506 -38.1894 -52.1238 -102.0128
-134.5888 -181.7048 -219.4338 -195.7997 -129.3320 -58.5278
7.6019 84.3216 153.2072 141.2427 48.9258 -22.9761
-40.8335 -42.0474 -52.4068 -98.4269 -161.3303 -167.9352
-130.4838 -117.7623 -131.0263 -119.6251 -70.3895 -25.9708
29.4264 126.1079 233.4660 290.0762 256.4152 215.7870
187.6161 123.8837 124.9922 193.2514 244.3444 250.3347
165.6826 27.5708 -125.3712 -303.9229 -417.6453 -353.2054
-165.1289 66.2686 251.9019 376.8119 441.1103 389.8245
281.2759 119.7237 31.5523 -14.0452 -84.2978 -134.5762
-189.4966 -224.0715 -271.5633 -204.2233 -68.4213 16.7878
82.0902 106.3336 98.4354 43.2148 -49.8600 -147.0913
-237.4300 -326.4675 -389.3681 -376.0213 -322.2796 -276.4757
-227.1914 -154.5524 -53.7605 42.2469 111.8598 144.1167
176.8557 240.8621 309.5107 368.8110 390.0155 367.7214
341.6820 336.5685 337.2471 318.1199 244.5363 144.0545
76.4711 34.3154 6.1860 -34.4125 -67.7256 -34.4305
31.3558 74.8544 88.3527 103.5587 114.8400 29.6147
-186.5083 -428.5968 -574.0814 -592.7643 -512.0972 -368.2060
-217.1151 -130.1405 -107.6734 -119.2791 -136.2101 -81.3176
-7.2177 16.0831 29.1533 -13.0530 -92.2907 -141.9887
-188.8451 -180.1142 -84.0149 53.2371 168.4654 204.9481
250.8394 360.8506 485.4875 542.3933 474.0837 342.5146
206.7091 117.3769 72.2012 48.5869 48.0489 48.6500
65.3565 78.4691 71.9984 61.3408 26.3000 -27.1145
-74.4414 -154.7426 -298.6293 -460.3373 -555.5327 -526.7455
-437.1961 -334.0440 -176.4076 38.1365 215.6661 306.1437
378.7323 414.7617 357.7874 252.7977 209.9065 211.3980
143.9192 38.2122 -15.6638 -4.4708 -15.1600 -75.4463
-79.3972 11.8996 141.5959 292.2363 378.4358 310.5812
202.5878 118.3547 75.7501 104.5122 90.5236 34.4244
17.6700 16.9581 29.9120 53.3488 55.7713 33.3069
10.0629 18.1837 73.3718 146.3696 178.1281 138.8734
46.2365 -46.8933 -137.0104 -265.6758 -399.8493 -478.0948
-475.3001 -414.7012 -327.5806 -214.8792 -103.2476 -21.1792
61.2758 139.6223 173.6113 167.0910 114.0442 38.7862
-41.9565 -129.8080 -231.4641 -334.7353 -325.1870 -233.3468
-172.2693 -126.0797 -59.3066 2.4667 13.8165 25.3267
48.8545 32.3471 -26.0845 -96.9942 -141.1245 -172.7532
-218.5363 -250.1399 -231.6327 -181.5778 -89.8845 34.7839
108.2692 130.6687 156.1405 179.6602 181.9087 175.6552
180.7236 241.6713 260.5219 144.0463 3.1552 -92.1150
-165.5021 -234.5175 -185.3341 -21.1125 105.4791 184.8781
240.2916 261.5636 248.3592 212.5317 191.3867 185.3215
127.6281 24.5723 -45.2406 -56.1803 -47.0484 -37.3911
-19.2029 -2.3683 -0.2145 -5.1026 28.1871 77.3731
73.8503 -10.4954 -124.4729 -203.1924 -282.6509 -306.9412
-199.0036 -41.3888 57.9900 58.7722 20.7161 -18.0313
-64.9302 -95.8298 -117.5597 -128.2183 -94.6051 -38.3283
-4.1708 6.7041 26.6072 83.0895 141.5382 157.2038
153.8532 168.1445 170.2380 105.6476 11.6751 -15.5999
28.9891 83.6690 121.4944 149.1696 153.0556 86.4798
-36.0465 -176.0634 -294.7776 -336.8703 -290.2157 -180.6406
-61.7669 48.8202 139.6384 193.7766 194.4859 109.2101
-42.1341 -192.1878 -276.5056 -309.9080 -323.0250 -345.9481
-311.5581 -121.0123 124.8983 330.4645 421.1773 434.1826
470.6319 469.1530 423.2834 363.3666 303.0182 258.2399
202.9662 154.6786 139.1481 100.8847 22.0850 -58.0873
-143.4100 -214.0601 -254.3297 -221.0328 -89.3322 86.0193
236.3244 263.3128 199.7282 106.4397 -40.9482 -214.2386
-317.9990 -315.3666 -326.0513 -391.8809 -425.2607 -353.8779
-226.4643 -176.4564 -173.3914 -155.7592 -151.5605 -172.3622
-191.0307 -178.3390 -180.6398 -189.3436 -168.8231 -150.3250
-137.4017 -96.8149 -59.9195 -85.9788 -134.1591 -176.5871
-169.7424 -68.2142 53.3595 145.4638 215.4740 266.5418
302.2972 312.6611 282.5824 207.0477 115.8988 49.3591
7.6070 -15.5819 -14.6807 23.2033 100.9631 170.1893
192.1490 146.4371 46.9952 -43.8050 -121.7802 -193.7055
-236.3506 -239.6472 -227.1268 -226.8348 -254.7632 -278.7722
-213.8421 -106.7453 -32.7112 34.2485 113.1203 190.4430
241.6910 265.3946 247.6886 199.8958 159.4478 125.6381
93.9769 57.2698 34.7937 41.8240 45.5046 35.3372
18.4999 -9.4727 -51.2328 -108.6811 -189.4680 -294.3604
-367.4789 -356.6699 -292.2913 -205.0274 -102.7133 5.0323
102.6384 164.9451 190.1888 186.1541 176.0931 174.2384
145.7701 69.7245 -35.9276 -133.8140 -218.6717 -296.3764
-313.0740 -253.8836 -150.2682 -36.4449 64.4218 128.4877
143.0954 157.6471 139.0156 87.3602 41.9898 4.8953
30.5679 27.1280 -18.0891 6.5931 40.9174 43.2272
25.8168 -8.3849 -31.5703 -46.1978 -29.8841 40.4920
95.4720 105.0347 135.2747 192.8978 217.9929 206.7179
161.6890 111.5044 64.2983 -9.8755 -52.1196 -73.6125
-119.8156 -169.0494 -180.5623 -157.4203 -136.7303 -75.4834
19.5660 92.0338 138.8678 118.3329 51.4480 2.5206
-57.5458 -82.6453 -59.2265 -67.6582 -94.7350 -112.0156
-114.7391 -106.6327 -94.5656 -57.5737 6.7355 72.2073
145.2771 248.3878 353.2739 429.8116 457.4237 430.7345
386.2428 342.2071 314.8681 273.6793 209.9973 134.7312
56.1379 32.4667 -1.9828 -49.3529 -65.1953 -72.0787
-60.2684 -51.5303 -38.8440 -23.2215 -20.1070 -47.2504
-111.2181 -186.7564 -231.4157 -223.0534 -214.5451 -232.4088
-256.0267 -264.3972 -234.1932 -167.5751 -76.5946 31.7737
110.4725 138.1720 150.8898 169.4935 191.6595 188.3449
139.1516 59.9824 -19.3842 -81.7369 -117.3752 -123.1213
-112.6907 -86.8477 -65.3647 -71.5217 -84.5838 -76.4820
-31.6145 34.9775 92.3186 123.4147 130.5252 134.8808
142.1175 137.6087 121.7673 105.5483 82.3386 52.1995
43.4137 68.9989 96.3668 95.1294 66.9892 30.4029
11.2910 14.1181 34.7305 65.2220 93.1918 112.7787
107.5183 84.6520 69.6081 64.1730 56.6614 42.0862
28.1247 11.6308 -20.1259 -64.3491 -115.3520 -163.3259
-195.5170 -216.4566 -245.1510 -288.3278 -318.2038 -290.4042
-210.4960 -127.5850 -79.4182 -90.7671 -129.2711 -169.9399
-207.2183 -248.5179 -300.8393 -323.3325 -314.9811 -249.5805
-152.0257 -84.1387 -27.1842 9.0407 18.0032 15.6835
-3.7402 -37.0506 -73.9731 -112.2591 -118.9163 -78.4971
-19.1337 32.0539 71.6025 119.4737 167.4846 201.0113
202.4019 162.0855 112.9994 84.8746 106.1394 164.2078
203.4734 219.6645 224.6536 217.1024 205.2542 187.0714
159.7189 131.5724 121.1752 125.3649 108.4204 62.0713
8.4171 -38.2483 -94.7802 -175.2417 -249.4111 -283.9462
-270.7381 -229.7503 -172.9373 -102.1250 -36.2161 18.5628
62.0425 95.8017 111.7666 86.2128 20.6969 -50.1091
-87.2109 -86.7234 -68.0486 -49.5017 -37.4138 -17.2196
12.5824 41.2066 62.8202 76.4185 81.7879 75.4038
68.2824 70.9518 74.9973 70.0299 54.7986 34.3385
8.3458 -10.2812 10.3699 59.1568 99.8093 121.0868
118.9077 95.9909 59.4028 21.5125 -8.6221 -22.0645
-10.2479 14.0081 37.8883 59.4974 79.8151 94.4976
97.5419 82.7774 55.0653 20.9853 -33.4071 -90.6130
-115.1970 -99.9540 -36.1323 56.2432 130.0250 163.0984
168.5065 176.7922 161.4339 98.5017 27.0702 -34.5021
-101.5375 -182.5370 -244.2391 -265.3498 -271.4681 -272.7560
-246.6985 -192.2809 -143.9140 -93.0823 -9.0718 94.6661
160.7724 167.8126 163.2326 157.2459 138.8135 118.0038
91.5624 48.1692 -18.8869 -101.5339 -173.6890 -204.6310
-169.1884 -79.1290 12.2823 93.3792 163.4706 195.0489
177.0148 105.6590 10.0247 -79.7202 -147.6306 -179.3170
-182.8164 -172.3732 -168.2899 -169.2848 -159.9645 -142.6406
-135.8122 -138.5122 -114.2247 -64.7998 -23.9643 4.8013
33.0100 69.9271 109.4486 124.8142 107.9814 67.2865
6.7831 -57.0251 -108.2812 -133.9845 -128.9144 -109.9476
-76.9958 -21.4878 37.5782 75.4082 87.0716 90.5115
99.8192 107.1298 101.9505 77.1764 37.5296 -0.9430
-34.0083 -65.2297 -92.9391 -102.5721 -76.8850 -25.8307
5.4132 -17.4396 -76.2523 -136.3592 -190.3758 -234.8864
-250.1555 -214.6399 -115.4747 16.1538 129.5770 210.5631
259.9339 293.8725 314.2497 290.2739 239.7144 209.0572
200.4299 187.7085 158.8023 140.0175 152.6813 181.6109
