Archivo de aceleración parte de la Red Nacional de Acelerógrafos (RENAC) Ecuador
          
Evento: 201604162358
Fecha del evento UTM (aammdd):                  2016    4   16
Hora del registro UTM (hhmmss): 23   58 45.00
Estación:                                      APED 
Componente:                                        Z
Frecuencia de muestreo (Hz):            1.000000e+02
Unidades: cm/s^2
_____________________________________________
15.6681 52.4544 81.5582 98.6611 104.7149 62.8017
12.7446 -30.2762 -72.8030 -37.2996 26.5068 -15.1895
-58.1602 -47.5959 -57.9924 -59.8852 -14.2644 49.6949
44.8953 3.2917 -3.8790 -11.0563 -29.3289 -70.0231
-83.0947 -20.1096 20.8367 14.7672 41.6640 61.2723
36.3462 25.4631 4.7637 0.5647 71.6957 100.6799
45.5525 -19.3504 -68.7986 -31.2606 50.5060 42.4834
-35.2603 -126.6095 -191.4420 -168.7071 -52.1666 64.5898
92.9512 64.9838 26.4401 -60.0233 -123.6795 -54.3245
35.0466 96.8999 136.2121 28.2327 -93.8119 -94.4320
-43.7436 107.4280 240.7719 183.1334 53.9422 -54.8390
-104.1416 -15.8985 78.0711 81.9680 58.4869 -41.5607
-160.1265 -142.8726 -30.9723 39.4996 32.7247 -25.7314
-85.7689 -98.3890 -57.2684 28.2874 92.3394 59.9858
-27.4722 -41.8841 7.7012 23.0132 24.6678 31.2703
1.0106 -34.9071 -31.7722 5.6277 52.5824 30.2266
-24.7340 -19.9186 -6.7107 9.3206 78.4605 118.3223
64.0383 29.8178 25.5716 -8.4107 3.3613 30.7160
3.0805 13.2637 80.6212 86.7704 63.2458 61.1713
19.7300 -29.8739 -28.7717 -5.4992 -25.3031 -76.4902
-141.3625 -215.3716 -232.2390 -165.5110 -34.8950 89.4419
123.8200 37.5522 -47.7711 -26.5128 -5.9988 18.6149
87.6464 76.4722 -17.0479 -43.1030 14.2760 19.3926
-9.5796 -8.4506 -25.3819 -2.7898 79.9501 102.3921
22.4960 -28.0098 -26.1744 -38.3868 17.2125 70.6335
40.6055 1.4463 -29.8553 -39.3276 1.1135 40.7464
22.8872 1.4027 -31.8528 -89.0186 -95.4534 -45.3527
21.4708 38.1621 -9.4757 -29.1304 20.5161 30.1080
-8.9752 13.7866 34.2514 55.0786 97.1595 23.8976
-96.5305 -129.9965 -106.7342 -38.4646 98.0086 209.1061
185.8911 70.1126 -45.4398 -86.1794 -31.4635 42.1646
92.5379 107.8897 -17.0766 -188.4924 -168.2278 -42.9454
26.5551 81.5370 59.2786 -109.6725 -183.4934 -47.3048
79.1233 126.6657 112.3335 -22.5723 -175.2743 -183.6445
-39.6057 102.7184 154.5330 189.8436 188.5088 98.8197
-27.7724 -96.2125 -61.9318 -50.8697 -81.6337 -64.1870
-75.9136 -117.4430 -81.9062 13.5298 72.4290 102.0213
98.4869 7.0404 -92.1674 -120.5899 -71.5042 -25.8138
6.8680 42.9868 -5.7670 -51.0208 -38.9002 -44.6528
-23.6327 21.5478 -6.7338 18.1580 134.0098 135.1360
93.4009 53.8412 -66.3013 -142.8678 -82.6839 18.0125
49.0944 22.3237 -34.2415 -83.3522 -38.5545 107.0463
195.3422 182.2984 130.4059 8.5096 -88.1018 -74.0328
7.0710 48.3853 9.7962 -29.1582 -118.1548 -242.9877
-245.0139 -140.9583 -37.5645 66.3669 103.8020 16.7964
-24.2686 -7.8934 -35.3575 -4.8373 75.9968 97.2356
24.0200 -64.2324 -58.6717 12.4667 86.1254 114.8436
85.6656 -42.4939 -185.1137 -160.5731 -65.1111 -4.4118
65.6430 146.7366 190.2181 156.9384 33.7500 -75.4316
-72.0566 -111.2390 -153.0687 -90.1003 -100.4606 -171.8965
-139.7051 -35.8107 35.0320 79.9799 60.1824 -23.5919
-41.4771 0.9125 6.5130 26.5987 108.3255 69.2126
-33.5351 32.4366 87.2183 16.3672 36.3408 53.5521
-123.9194 -235.6778 -128.9387 0.1385 132.0346 242.3386
130.5246 -86.0477 -202.1507 -229.6129 -102.2672 163.5549
326.4893 269.6285 114.0224 -44.6360 -152.9899 -195.5416
-183.6296 -53.3047 96.0761 85.7139 4.7565 -7.4558
-12.2638 -17.9673 76.5975 186.8432 149.0512 38.6711
36.8543 79.5702 28.9791 4.6379 33.7445 -44.5934
-161.7104 -163.9471 -97.1060 -75.8282 -21.7130 86.4388
59.4048 -10.2070 -4.3098 -30.8794 -58.7884 -24.5837
12.4352 50.1438 164.9630 218.0382 71.1184 -70.1322
-68.8781 -40.0876 -42.5968 12.0719 96.0260 21.9011
-91.5898 -51.2404 15.9900 38.4895 59.5457 21.2578
-95.4217 -178.0865 -156.5335 -72.0259 43.7887 162.0904
157.2676 69.6780 3.9520 -87.4297 -119.2791 -33.0206
66.1084 75.7494 -18.0479 -92.8198 -73.8854 -27.1540
20.6812 113.3245 142.1280 -5.4156 -142.3097 -146.3965
-85.7751 16.8512 89.6701 86.7530 45.4971 33.2468
50.7667 37.7276 3.9279 -34.4249 -54.3604 -91.4238
-143.5045 -93.3417 45.7585 140.2380 180.4196 209.9980
141.0565 -21.3820 -145.9349 -167.7901 -119.4070 -12.3824
129.8369 142.5970 36.1750 -22.9865 4.4108 35.7606
16.2088 5.2432 -4.8826 -66.8527 -131.6332 -117.8099
-39.6370 50.7927 116.1989 118.9927 24.5716 -109.9736
-152.6802 -80.1217 31.7433 90.3662 98.8931 68.9782
-2.6811 -71.4651 -98.6354 -72.3772 -36.8525 -26.4486
-19.7534 27.7306 18.9266 -91.3089 -172.7344 -152.2603
-8.1408 149.3646 228.8797 210.7887 44.1698 -170.6228
-299.9522 -257.3031 -79.4571 112.9779 257.5933 271.4129
152.2900 -11.6195 -64.5529 -8.7368 21.8047 72.2976
187.7591 215.6561 70.8256 -34.1356 -49.7359 -64.2851
-61.9733 -73.0742 -68.4424 -18.4510 30.9564 12.6643
-66.4272 -100.9239 -28.6519 -4.8557 -86.7252 -123.4873
-82.4261 68.0643 202.5140 203.1035 147.6146 77.2372
15.8724 -40.5111 -40.3637 13.5059 54.3679 59.7543
8.3392 -44.4496 -33.6073 -7.1674 22.9291 64.3871
56.3580 16.4221 7.8609 -0.4064 -84.3615 -176.5004
-183.8714 -103.9893 12.0497 133.3287 237.4334 230.3943
156.9210 52.0144 -38.0640 5.6076 85.9420 116.4159
145.8284 136.9530 -2.6338 -208.7234 -293.7352 -191.3721
-67.7490 44.0113 186.6273 193.1808 104.7514 33.2070
-38.7378 -72.2743 -80.1485 -115.0883 -186.8292 -228.7729
-165.3939 -59.2314 43.0204 209.2297 336.9740 245.5080
-3.5181 -248.9625 -376.6280 -299.1030 -92.0040 114.7715
307.4067 382.3279 276.1357 117.5421 -41.1794 -216.9314
-336.2054 -296.6967 -132.8187 56.7242 157.3140 101.9530
-61.0296 -222.7534 -123.1860 137.4350 215.3298 154.9606
102.1384 -20.4188 -253.6796 -272.2896 -46.5370 146.0537
250.6349 250.3392 158.2744 -27.4394 -141.7358 -10.2031
159.2337 176.7222 104.8617 57.6623 6.4363 -131.4719
-224.3830 -181.2333 -88.2202 -25.4029 33.2738 190.1089
305.3916 212.5342 68.5352 -7.5372 -94.8191 -193.5689
-365.6902 -495.9047 -360.7088 -176.8146 -32.5709 161.8449
323.9822 352.3250 213.5159 -11.4479 -237.7104 -441.0146
-529.7915 -300.6584 251.3533 710.5159 618.5299 246.9540
138.4649 26.9401 -265.4627 -393.6483 -291.3232 -99.9218
19.6182 133.3455 259.8060 186.6163 -64.8884 -261.8366
-260.8114 -91.4700 99.3103 137.7308 90.7260 32.5526
-62.0381 -146.2045 -186.8041 -137.5404 -17.1096 103.2294
151.3771 109.9274 18.9712 -65.9006 -56.7490 14.7537
50.4749 50.8169 55.4720 49.8446 -16.4561 -119.1955
-158.0683 -94.4371 -10.9539 5.4677 -3.9018 49.7009
119.8901 89.1206 -45.5980 -122.4036 -43.3223 55.4498
55.4841 8.9446 17.9646 100.6841 188.7928 265.9024
353.9425 345.7280 168.2028 -55.0870 -210.9554 -255.4175
-190.6583 -79.0241 24.0555 73.9829 38.6000 -23.7474
-40.7177 -41.7929 -43.9165 -31.3186 -38.1436 -57.1225
-33.5348 9.3821 5.4084 -72.8488 -148.5802 -193.9406
-220.7391 -199.9193 -194.9101 -118.3307 33.2683 226.4346
439.8831 435.0695 316.5714 205.2607 19.9038 -155.0604
-291.9730 -388.5177 -314.7421 -104.1514 245.0122 633.6084
693.1147 344.6945 -138.2588 -558.4420 -727.3894 -227.7078
76.1389 -172.4403 -39.0167 196.6791 248.8432 105.3262
-77.9442 -134.5418 -218.8417 -160.7415 21.2311 131.4286
110.8174 30.2150 -41.9208 -105.7512 -155.3495 -159.2464
-101.0415 13.2632 159.2394 269.8336 301.7970 246.6668
129.0918 65.1131 139.8100 175.5497 80.5298 1.9890
-34.8056 -75.8039 -94.7661 -21.9379 63.6708 26.0271
-63.0650 -119.8906 -164.2472 -216.2963 -223.8842 -181.8014
-143.4866 -53.7049 83.0103 131.5315 65.4635 -33.0713
-160.0973 -247.4208 -163.2025 67.3173 275.4740 317.5957
333.1561 370.8999 194.9616 -133.2422 -323.1800 -306.2950
-230.6016 -139.3173 11.5401 127.0294 116.5208 -15.9323
-175.3203 -283.5795 -346.0659 -348.5585 -227.7504 -25.9423
66.6231 46.6301 -2.2397 -39.4171 -14.0636 29.7358
93.4810 184.9878 238.1057 174.8499 40.3473 -52.2950
-121.6481 -163.5575 -150.8418 -93.4378 27.9459 188.3071
294.0748 297.3005 260.0944 216.0271 121.3390 -18.0170
-127.3469 -213.1521 -281.1686 -222.1396 -54.1998 121.0980
206.5761 146.8334 56.5557 5.7561 -11.3690 -11.8482
-24.3340 -36.7568 -14.4297 58.7340 87.2798 62.1887
82.5895 108.0255 82.4700 55.2506 21.0273 -84.7042
-216.4390 -250.4361 -154.7405 -79.5004 -60.0385 21.2664
105.6600 86.2417 -1.8225 -22.5756 45.3222 78.4675
17.9860 -61.9462 -84.5049 -92.3440 -136.1240 -178.7527
-173.3403 -120.1548 -37.6281 10.3555 60.6185 115.9786
91.2888 54.5980 15.4101 -15.4586 -20.5123 -68.3939
-180.9727 -286.3612 -216.9367 -44.0081 106.4071 239.5888
206.1655 67.3628 -37.3157 -133.1411 -195.7294 -222.4214
-97.9723 92.1963 134.8806 150.5013 193.3135 186.9121
88.8909 -68.7127 -129.9283 -56.4828 6.4272 4.9395
15.2229 29.5180 43.0874 0.5393 -71.2785 -13.6483
41.5413 31.1837 101.4758 172.3139 132.7153 63.8841
40.5977 38.3860 13.2735 14.7715 111.4487 238.3004
323.2074 289.7072 106.4841 -75.4830 -138.6739 -142.9934
-154.2501 -131.3864 -32.7718 94.4321 127.9806 -3.9489
-128.8141 -108.9499 -94.0680 -132.4820 -133.4386 -42.7864
50.8227 -16.5598 -134.9226 -142.2899 -110.8168 -84.7894
47.8686 193.7465 175.9577 77.6324 -7.0735 -122.6148
-238.7873 -226.6926 -95.1961 85.5716 159.4286 137.9877
160.8153 58.3225 -130.4640 -253.2604 -269.3158 -131.3381
47.3356 242.4985 381.7136 316.3009 112.7863 -38.5142
-83.1052 -111.1171 -88.2358 -12.4062 37.3942 35.3772
-44.5077 -165.3834 -273.1968 -353.8409 -350.4419 -228.2712
-51.2576 148.1173 366.7399 538.5340 516.6370 267.7964
50.6077 -42.3442 -139.5535 -160.3697 -33.1500 160.0729
242.6357 151.1270 73.7745 23.2252 -81.8946 -144.1771
-34.1353 155.0647 190.6913 193.0281 218.7996 70.7620
-105.8335 -165.5336 -176.7828 -189.1972 -180.1643 -58.2272
13.4377 -83.4073 -153.5752 -134.6825 -118.8495 -161.1853
-174.3811 -76.3997 59.9475 155.6755 162.6841 140.7556
109.5384 -14.1849 -86.2947 -29.1827 -6.2337 13.9568
95.5676 107.2155 -7.8345 -125.3121 -156.3430 -145.0465
-108.7682 -7.1059 108.0256 148.2814 93.9603 -9.5882
-85.4577 -144.0871 -157.0948 -98.6192 2.2357 108.7097
85.4354 7.5628 -4.1694 -45.4457 -85.9777 -76.8326
-17.4338 79.5234 61.0440 -36.0345 -23.2318 32.0246
6.2030 31.3887 126.6570 107.4528 12.5608 -20.6345
32.2489 27.1072 -128.3960 -218.7293 -111.4748 63.9899
193.7150 199.5167 124.9440 62.0044 -2.6640 -31.4916
-12.1808 12.2522 14.5695 59.0428 130.2665 113.8097
10.1128 -140.2097 -248.7906 -283.6109 -195.7247 -10.4280
131.0358 186.5341 110.2021 -7.0215 -84.9756 -140.6528
-107.0478 19.6500 189.0192 276.9573 218.5198 88.8159
-57.0045 -141.4184 -147.1265 -125.7672 -72.0866 35.1317
144.5691 142.1776 24.2578 -79.7709 -118.6465 -116.9576
-66.4787 50.1304 184.1037 235.4437 245.4583 229.7802
87.1604 -122.4302 -235.0071 -179.6108 -63.2752 49.3147
131.2722 131.8673 185.5293 202.9334 40.0824 -68.9564
-27.2370 49.8393 48.7020 4.2389 -7.9688 -96.4687
-142.2860 -89.9078 -74.6607 -94.6565 -143.2222 -119.1294
-34.3132 39.3465 91.3835 75.9121 20.4398 54.1440
82.7872 50.5568 113.7004 159.9256 191.5498 181.1171
96.8413 27.6801 -28.8813 -23.8527 19.9541 83.8949
117.6621 114.0461 49.7532 -68.1842 -172.2352 -202.5487
-61.8310 103.1074 179.7156 214.2828 194.5957 85.1879
-86.9027 -217.3796 -253.3687 -213.8786 -152.6899 -84.8115
-24.2717 -5.3966 -10.5549 -10.7301 -34.4216 -95.9495
-133.3939 -116.2661 -73.9608 -17.2353 48.8364 101.6151
141.9320 122.0484 25.3637 -53.5387 -70.5395 -46.8101
-57.6329 -83.9495 -76.7676 -86.0462 -109.5208 -140.8668
-102.3880 -33.9322 -7.8900 36.8382 82.8558 127.3866
87.9373 -30.9382 -95.6872 -81.5904 -1.9233 93.3691
120.2520 86.9482 50.3622 -27.0747 -131.9414 -203.8927
-183.2277 -78.1088 16.8276 89.1840 116.0020 63.8324
-80.4160 -221.7324 -206.9729 -115.2353 -96.4955 -95.0383
-3.3545 97.1204 100.2108 28.3791 -43.0782 -99.7268
-139.0992 -105.5535 -42.3858 -9.0088 -18.2864 -62.1572
-109.4744 -113.9561 -59.9447 -27.8774 -25.4507 7.0476
63.9214 29.1354 -52.8981 25.9607 144.7026 134.2153
104.1632 153.4251 159.2425 32.7032 -39.3083 -9.5760
-19.8835 -40.9935 8.3138 68.1565 59.2747 76.2403
185.5952 177.3780 2.2155 -61.3165 -15.7031 -24.8815
-50.4742 -66.3525 -25.8632 26.7922 -5.9925 -42.8594
-19.2912 61.4539 71.7633 -51.5105 -119.1775 -62.6170
7.4888 5.1520 87.5063 271.4088 209.7252 -14.9328
-109.2593 -107.2404 -121.3650 -126.5744 -40.3085 52.1438
115.1836 125.6496 13.2516 -72.5398 -53.8055 -0.2733
59.7827 121.9113 218.0759 273.3684 155.3819 -76.1743
-136.2525 12.5156 69.8019 12.7445 72.6967 208.0252
140.1450 -6.9676 1.6547 3.1962 -83.5267 -127.6098
-2.0919 198.1042 263.9850 203.8549 81.6231 -51.5308
-170.4776 -282.1489 -278.9408 -136.6520 2.7012 -11.7941
-135.3700 -153.8661 -59.1864 24.3155 111.7030 234.1332
268.7791 127.5943 -61.0958 -169.8686 -213.2732 -193.8762
-76.1641 78.2083 149.1872 140.4926 100.6067 43.0284
21.7933 -12.8258 -82.9168 -88.9770 -21.6437 29.3904
-24.6238 -91.9803 -39.7551 55.5652 60.9497 7.9060
6.4748 45.3680 45.0649 48.9005 135.0617 179.9957
79.8758 -78.5972 -185.8999 -276.6689 -378.3330 -338.8735
-113.6205 143.2882 197.2811 96.4781 80.0742 39.9065
-85.8653 -121.5096 -97.2684 -55.2756 46.4441 124.8367
104.4915 -23.6051 -91.9645 -57.8210 -95.4934 -195.1562
-219.5262 -129.1994 -53.5126 7.4240 116.3887 180.2654
177.4355 142.7710 80.3541 15.1509 -49.8642 -75.3020
-46.8776 -34.5290 -39.7115 -22.1998 -13.8769 -26.5481
6.7288 94.1886 203.1570 242.3486 178.7286 143.7517
133.3386 70.2515 40.0743 78.1490 43.9989 -84.5463
-143.6484 -69.5281 -21.0921 -73.8856 -50.2516 116.6862
312.4266 361.4957 219.1596 89.6142 36.6882 -33.2257
-138.5976 -225.7329 -245.7927 -186.4505 -33.1450 134.5983
234.0035 218.1214 71.7328 -52.4364 -73.8485 -66.6027
-39.2498 26.7163 87.4267 58.7372 -48.3764 -124.9883
-118.0456 -83.6175 -87.5310 -33.8551 104.3756 191.5574
106.0951 -93.1185 -138.6346 -79.3007 -146.9075 -224.9626
-157.5635 16.1771 180.3304 175.3611 80.3987 25.8885
-93.9407 -243.7340 -311.3361 -227.9047 -30.8472 112.4604
206.9232 296.6132 323.9151 256.8339 162.9319 125.8564
132.4673 143.2216 107.7849 12.8985 -94.3170 -199.9299
-264.8439 -187.4005 21.1974 175.3565 190.3533 160.2132
104.1421 -1.9343 -84.4563 -78.0985 -11.3741 45.4709
-3.1606 -136.8076 -219.3575 -251.8177 -220.5801 -154.0764
-121.6736 -40.0293 77.6707 162.0170 119.0166 -59.2882
-214.4614 -286.6315 -285.6656 -194.0818 -26.5869 92.7445
141.7060 190.7658 187.9767 133.3637 49.9555 -42.3772
-45.6085 27.6155 69.6315 21.1390 -100.9946 -145.3094
-60.8213 20.7803 102.0204 203.8152 218.4199 92.3626
-82.0351 -169.7943 -135.8806 -45.4852 32.9055 76.9811
82.5817 70.7568 91.9492 98.0105 12.2729 -59.6033
-91.6539 -152.9835 -156.1508 -57.0209 54.5503 66.5847
8.6059 12.4833 21.5608 -19.5830 -22.9339 12.2210
23.2923 -27.5602 -88.1927 -118.0557 -144.5669 -137.7781
-68.6687 58.5954 161.5165 169.8830 135.9406 59.1442
-38.6676 -86.1331 -96.8530 -97.8912 -141.3430 -213.2016
-216.0547 -172.1070 -130.2810 -12.1277 144.2107 180.4408
159.1667 138.0336 57.8669 -43.2281 -118.9493 -70.7627
67.2178 96.4486 58.0523 55.0926 18.9320 -69.4946
-131.2126 -134.8304 -90.5860 -25.6201 42.4186 110.7716
118.7321 0.6065 -168.3742 -239.5432 -175.7230 -82.6348
-24.8609 61.2409 106.0109 59.6642 19.3593 -21.5425
-50.2237 -31.8574 -1.9889 -18.3993 -78.1382 -79.8790
3.7535 104.8170 153.8211 168.3990 218.2170 248.3173
160.1817 9.4226 -67.6036 -63.1618 -69.3250 -88.4012
-45.7660 46.1588 82.0719 52.4054 40.6603 36.1952
-22.8717 -91.7669 -89.5988 -57.3601 -20.2151 47.1377
95.4040 99.3833 75.2506 35.0894 -10.3099 -17.5196
17.7474 37.1305 51.2597 82.0673 141.2436 158.9063
52.1932 -73.8660 -115.6827 -105.6042 -127.6550 -196.3231
-213.9867 -118.1307 57.1022 225.7938 298.7193 264.8084
163.9692 55.7989 -23.9859 -94.6256 -159.3004 -179.7514
-133.2416 -80.9088 -38.6750 23.8244 98.8494 205.0388
282.6324 223.2002 57.7520 -63.4176 -86.3008 -92.0394
-113.1234 -89.4394 14.1324 71.9489 11.7150 -75.2054
-130.1595 -121.8282 -72.2373 -25.0602 11.8568 37.6505
70.8069 94.4604 99.8366 95.6042 53.0330 3.4143
-6.8033 -15.0178 -37.6405 -22.8012 12.2146 -1.9675
-39.2209 -60.5376 -45.2793 -9.0928 3.0463 35.3406
75.3693 76.4279 72.0120 73.5979 56.1308 31.1370
58.5455 98.0439 70.6559 1.5725 -84.4645 -167.3091
-203.5105 -203.6486 -185.7412 -127.5511 -22.2756 100.9035
182.9927 198.4614 144.8689 26.3791 -103.4499 -190.8912
-186.8998 -80.3647 67.0964 167.2089 179.4027 139.9802
57.1291 -45.2515 -89.2892 -66.2067 -24.8349 6.9394
27.5591 14.9463 -53.1295 -130.9882 -122.4261 -47.4938
-15.7815 -4.1105 24.7264 14.7424 -60.3559 -159.0538
-201.1987 -148.2745 -36.6959 69.5334 122.0330 112.3540
45.2014 -58.1099 -137.2320 -147.0760 -100.1046 -10.9883
105.7162 161.8346 124.9575 85.9355 42.1258 -50.9493
-116.8821 -115.5603 -83.2483 -42.9332 -2.3605 52.1098
67.4895 7.0118 -17.8671 21.4497 50.3468 58.8106
44.3468 6.2665 -49.4403 -99.3630 -92.9357 -49.2113
-6.6911 65.5986 102.2690 42.3075 -1.6699 -2.2297
-2.9194 -15.3579 -50.3505 -51.3359 -12.7171 -12.7328
-52.4593 -75.3962 -71.5087 -48.7868 -22.8549 -4.6027
6.0302 -22.3303 -60.8786 -49.3661 -7.1341 26.6896
58.5502 94.7247 89.4143 59.2435 25.9008 -1.1276
50.2106 122.0618 142.5970 123.9138 45.5527 -4.1902
38.2689 96.7055 124.9825 114.4999 106.9648 97.2960
71.4299 84.4709 114.6352 124.7999 111.2074 79.1207
48.7303 22.3924 6.2471 -14.1343 -54.8053 -106.3419
-150.7484 -168.4019 -168.1433 -147.8064 -94.9647 31.7118
173.5918 219.9125 190.4741 79.6518 -61.3513 -148.7453
-168.5298 -110.0663 -18.0951 45.5704 64.9359 46.2480
-10.7185 -78.7777 -127.1997 -138.4731 -101.2808 -27.4571
55.6878 112.7637 99.8710 48.7210 41.1971 61.6221
71.2863 47.6171 -5.7520 -50.5034 -72.4346 -68.2236
-61.9751 -72.4782 -83.1908 -66.4939 -30.4863 2.0982
38.3236 46.5706 30.7321 26.0288 -4.9604 -64.6132
-106.6134 -123.5383 -123.8321 -101.3308 -61.3958 -27.4617
-19.2936 -16.5202 13.3076 34.9450 26.1799 4.8530
-47.8468 -106.5467 -126.5323 -113.3828 -58.9978 24.7895
96.2245 107.1280 53.7024 -1.2035 -20.8239 1.1546
41.0266 67.2375 54.9213 0.5938 -38.3532 -31.0971
-4.4033 22.9662 64.5039 110.6374 112.1196 63.7429
9.0317 -23.9959 -34.5778 -24.4733 -15.1224 -31.2473
-38.7388 -19.3557 -0.6270 8.8657 -6.5417 -48.9183
-78.2057 -75.8819 -46.6724 -23.5046 -39.2245 -34.5212
36.8508 138.2776 201.0541 183.3979 112.9149 21.2959
-55.1362 -90.4338 -82.3797 -19.2268 83.5904 169.4189
168.3334 89.2067 7.4012 -50.3717 -88.3751 -98.5945
-79.0232 -54.6848 -54.8803 -73.6878 -72.8842 -43.8174
-17.5898 -7.7449 -0.0754 15.4451 6.0488 -44.6535
-86.0874 -77.2982 -36.9516 -19.7727 -24.8023 -9.7934
2.8342 -7.0052 -13.2332 -2.5568 14.4561 22.5733
12.6523 -5.5453 -24.4593 -48.3955 -44.4190 -14.0443
8.5534 38.6009 87.2556 131.4295 130.6861 81.6263
20.0400 -26.7080 -63.8141 -99.5492 -105.5400 -95.3317
-83.3232 -47.9348 5.2192 43.2615 39.8439 27.6927
11.2489 -19.1192 -24.2137 7.5468 46.5882 60.4783
67.5888 71.0611 55.4850 44.9309 33.1283 6.3436
-19.0849 -20.7265 -17.5583 -32.4606 -32.8879 -16.4061
3.1336 25.2067 34.1219 12.9174 -22.4321 -40.2774
-42.2332 -21.2122 6.4187 10.0968 -8.1267 -56.3754
-140.0747 -206.1891 -185.9894 -105.2517 -12.4787 102.9143
229.4805 284.5801 245.1122 181.9223 102.5824 -3.0638
-90.4699 -120.5581 -84.1194 -21.2753 7.6089 3.9911
5.7328 -5.6119 -32.7720 -29.6297 16.6984 83.6406
123.8824 118.7778 86.6781 48.2178 2.2967 -51.4497
-78.3826 -82.6920 -70.7707 -32.3187 2.8843 4.8568
-22.0261 -44.2632 -39.6396 -7.4510 30.9741 50.0902
51.4408 32.2598 -13.7013 -71.3305 -117.2702 -137.9103
-134.4500 -114.0649 -78.5235 -15.2576 70.8174 137.8662
149.4917 99.7358 37.4951 5.2545 -4.1529 12.8239
51.7791 90.9689 109.0432 79.0180 11.3157 -46.8280
-86.1605 -104.2524 -69.9587 16.2860 97.4102 115.2110
81.5569 33.7290 -18.3646 -60.2212 -86.1438 -98.6556
-81.9300 -47.5250 -25.3787 -22.7500 -17.3218 6.4466
21.8744 15.5500 -6.8679 -13.2962 18.8693 51.9089
65.6071 67.0142 62.5445 39.1274 -6.7205 -26.9731
-18.6251 -17.3348 3.0420 57.1211 94.9696 84.5824
47.4921 9.2098 -29.3636 -60.8663 -63.2143 -25.8088
19.4839 46.3279 71.5933 97.2072 104.9888 77.8788
17.9257 -43.5197 -83.5122 -103.7036 -100.6855 -68.6656
-27.0991 8.0650 47.1964 87.0137 109.4937 108.6530
76.6108 11.3482 -62.2771 -110.2885 -111.2785 -68.3161
-3.8164 53.4606 58.7414 -0.0929 -71.5131 -114.4514
-137.6460 -142.3530 -111.0088 -64.5722 -26.9193 -3.6709
-2.6114 -19.1219 -35.7956 -43.2222 -42.4713 -33.8314
-6.3024 47.9917 72.6018 47.3911 23.1583 14.8335
