Archivo de aceleración parte de la Red Nacional de Acelerógrafos (RENAC) Ecuador
          
Evento: 201604162358
Fecha del evento UTM (aammdd):                  2016    4   16
Hora del registro UTM (hhmmss): 23   58 45.00
Estación:                                      APED 
Componente:                                        E
Frecuencia de muestreo (Hz):            1.000000e+02
Unidades: cm/s^2
_____________________________________________
-6.3295 2.5396 12.8229 9.4353 -5.3971 -14.2339
-7.4936 2.1993 1.3920 5.7598 13.7581 15.4289
13.2330 3.8426 -14.3618 -25.2391 -17.9388 3.3083
20.7770 21.4860 22.7660 11.8436 -14.5356 -21.0184
-7.6279 7.0122 10.8238 3.9906 11.2440 18.9811
6.0780 6.2610 12.6160 1.4177 -10.6247 -15.6363
-13.7457 -5.9038 -0.9152 3.5189 17.3075 18.7043
4.5773 -6.2164 -12.9255 -7.1277 -8.8325 -25.9849
-28.0254 -19.2832 -13.5195 -4.5401 1.3294 9.0141
18.5415 18.3926 15.2532 -3.5828 -17.6722 -8.2615
-1.2444 0.9478 0.7124 0.8816 18.4459 37.2167
21.5604 2.4163 -8.5015 -23.9261 -30.6976 -50.5985
-67.5955 -61.3177 -56.6409 -57.9807 -53.8767 -34.5423
-20.5283 -16.7582 -14.8133 -13.5618 -0.2688 12.6398
37.3196 59.7419 45.9404 23.7057 28.0101 59.4054
75.7384 61.3383 42.8222 30.5628 26.7181 42.8314
58.4729 55.2821 31.7122 -7.1498 -18.5532 -11.1968
-18.8033 -32.8384 -40.3290 -47.6974 -54.8579 -50.4358
-53.9825 -67.2590 -83.5580 -103.5628 -95.1848 -64.1049
-54.2143 -52.8763 -35.5033 -5.4698 25.2091 39.5587
46.6328 56.7552 62.4215 63.8265 79.3770 93.5464
77.1241 62.7157 57.1230 40.7955 16.8780 -13.3063
-28.9598 -30.6012 -30.0733 -12.9164 8.0199 -2.1071
-25.2338 -12.9955 16.4559 9.4360 -18.0180 -33.4647
-40.9654 -39.6266 -39.4022 -59.7482 -85.3742 -80.9429
-66.6383 -45.9522 -12.8410 -11.5518 -23.9023 -9.1987
26.4661 55.1818 56.4186 49.8126 64.3258 94.5836
129.2736 148.7046 139.9091 118.9636 67.0339 -6.1881
-55.0162 -70.4582 -66.4131 -60.6595 -49.1596 -35.9824
-16.8962 17.7478 43.4741 46.6143 28.0229 -5.6134
-35.2367 -44.3255 -41.3121 -29.4178 -6.5614 25.7966
88.0281 145.0669 154.9180 141.6958 142.6770 154.7589
150.5787 156.9999 179.0865 166.8712 121.8022 95.3799
74.2477 14.1487 -33.2587 -44.3660 -78.0684 -120.1075
-135.5017 -149.9690 -165.7641 -146.3533 -112.3879 -116.3006
-140.6714 -167.0570 -190.0641 -207.1392 -221.2507 -207.4758
-197.3911 -210.3466 -190.2876 -140.4415 -104.9487 -80.9669
-55.2572 -25.3699 1.6124 9.1196 0.6570 -13.0774
-24.1322 -12.4172 5.5702 2.5301 7.4433 17.9050
27.0876 46.6069 62.1933 74.0297 74.2550 63.4485
47.9963 53.9017 68.7478 60.3689 62.1234 62.5740
54.9509 55.9403 68.6752 88.1890 81.3990 53.7527
27.8600 2.3701 -7.8470 11.8672 36.2132 60.7063
61.5395 24.3666 6.8704 2.2165 -31.4105 -95.1261
-157.0588 -183.3928 -189.6853 -193.4297 -187.1648 -175.3321
-143.3428 -104.1258 -83.8690 -42.6346 -8.4190 -21.1061
-33.9273 -45.0079 -78.1632 -113.8850 -143.7906 -159.7862
-151.8247 -144.7791 -143.6205 -124.8552 -90.1220 -61.3520
-40.5214 -30.0367 -49.6599 -88.2893 -107.8390 -111.8592
-114.9627 -105.0159 -74.6736 1.4275 68.7542 86.2477
112.3289 106.7408 31.5041 -69.8422 -109.6762 -63.5332
2.9052 65.2277 100.3509 133.3066 184.2469 204.8384
157.8227 29.5124 -123.8226 -232.0242 -250.3325 -168.3665
-76.9449 33.1464 142.5113 94.3655 -41.5468 -141.6481
-212.4636 -240.5669 -215.0172 -204.8019 -226.7690 -220.2604
-172.0025 10.6928 237.0843 268.4188 225.9641 239.0466
252.7975 236.5950 154.1050 57.8262 8.5015 53.8372
183.3632 299.5217 378.0752 406.5941 373.2540 285.4700
226.8073 241.3647 256.1566 246.8269 229.5743 208.4614
151.3913 115.0461 129.7902 104.5127 19.1251 -48.4664
-40.6025 -49.6453 -121.5017 -214.6016 -296.4700 -305.6830
-243.7697 -154.0676 -58.7719 36.7427 89.5792 91.1571
54.6859 -38.5473 -139.6472 -199.0033 -206.9132 -195.3067
-153.9462 -62.2220 25.5647 105.8138 178.7498 223.7608
234.2106 210.3565 192.7610 176.0049 137.8905 60.0496
-73.5757 -168.2011 -203.6488 -226.1696 -238.3159 -266.9093
-292.6466 -300.1051 -279.2469 -198.5582 -63.5839 102.6588
202.0714 177.8495 101.2611 7.1819 -90.8890 -215.8283
-353.8160 -416.1468 -388.4720 -333.3726 -284.2557 -211.4917
-145.4358 -84.5469 -17.1476 14.8491 24.1283 29.3900
58.2482 105.7071 164.7808 211.0471 184.9208 120.9496
52.0798 10.4491 7.8798 24.1816 88.6485 169.1542
263.6628 367.4966 420.1261 451.0947 473.0186 460.2948
412.5711 353.9819 294.9247 186.8859 85.1800 83.9533
138.7520 183.0247 175.0862 126.2140 61.1061 -21.3812
-83.2642 -65.9582 27.1159 104.9907 118.6442 61.8519
-52.3599 -185.3048 -306.3231 -418.1634 -515.2477 -558.4620
-521.0694 -423.8646 -407.0635 -455.5413 -449.6681 -269.2395
101.3484 313.0656 302.3970 245.8823 129.0572 -22.5794
-130.8583 -152.6654 -100.2602 16.1107 116.3968 91.2278
-17.1200 -52.7039 3.5873 92.8159 171.9735 191.5139
220.9211 266.5860 298.0410 303.8103 259.7914 162.4074
34.6451 -62.8916 -149.7744 -145.1739 -29.1947 80.5619
170.4608 220.3795 181.8485 55.3028 -57.7991 -82.2573
-45.6592 -22.4921 -51.5223 -188.4176 -357.0428 -378.9051
-269.4253 -37.1414 197.6786 295.8240 313.8702 300.8723
247.7067 193.9599 199.2326 155.5107 89.3693 85.3224
106.2330 161.2524 181.5432 223.9519 295.4957 270.4766
222.6480 177.7160 152.4633 190.1778 219.9225 214.7996
210.6368 218.3270 205.7761 171.5045 131.7413 68.0201
-19.4640 -110.1630 -200.1354 -273.0135 -293.6987 -264.7191
-205.0927 -167.3627 -205.8274 -221.2051 -173.8602 -167.1089
-209.4514 -267.7831 -307.8580 -314.2498 -291.9065 -239.6651
-224.3923 -286.5548 -383.9406 -459.2573 -495.7506 -475.4819
-418.0835 -382.6183 -352.5684 -366.8729 -391.3320 -254.6114
36.4648 302.7923 526.2457 756.7438 858.1674 830.7897
724.9890 568.4337 477.0884 418.5452 394.1900 451.3621
494.3732 466.6322 497.4941 449.6683 185.0898 -68.2453
-228.9781 -240.0936 -220.9146 -187.8448 19.5165 234.4182
419.6386 556.4391 533.4844 406.3897 251.7324 77.0096
-20.7579 -31.5737 -99.9027 -205.6556 -324.5230 -414.9498
-478.8125 -566.6976 -626.3672 -669.2403 -694.3772 -717.8147
-711.0716 -697.7105 -680.1986 -633.2786 -548.1163 -331.2174
-300.2552 -302.6617 -108.2430 -104.8287 -130.6681 -110.0628
-71.1502 105.3381 297.9250 517.9982 689.0897 731.2952
694.4240 607.4346 307.2676 -113.6546 -383.8663 -397.6641
31.3217 252.5967 68.8264 -41.3780 -219.8820 -396.8301
-475.4866 -451.4394 -348.7983 -271.6297 -201.8634 -28.6174
158.5488 245.5401 260.1103 151.5565 -8.6328 -148.7952
-184.3984 -160.7429 -168.8359 -159.8675 -161.4602 -176.4590
-215.6778 -294.0649 -338.8994 -327.8951 -276.2054 -163.3894
-51.4802 29.4163 98.7771 132.6193 143.7670 164.7566
222.3389 273.5973 303.1848 331.5005 351.2534 406.9174
482.7472 532.8755 550.3838 510.6095 379.0569 218.5898
133.3604 49.8414 -94.4591 -189.6840 -149.1796 -69.1494
3.1659 159.4499 317.0497 369.0604 342.0854 283.4402
232.2074 129.0725 -46.7694 -200.5991 -297.9905 -361.9571
-404.1240 -409.3397 -398.7447 -430.8627 -498.3319 -544.2019
-575.8427 -583.1025 -566.9028 -553.3670 -499.1862 -443.8449
-323.9751 -218.6020 -169.3261 -34.9384 -3.4209 -23.2877
53.3393 142.5228 259.4712 457.4089 654.0768 755.2880
800.8444 750.3905 733.4735 746.3831 612.4120 321.1454
-339.3574 -1141.5876 -1380.4960 -935.3565 -548.3555 -53.0131
614.3136 611.3306 507.9557 488.3784 371.7418 374.0388
418.8632 410.5661 206.2696 22.5159 -105.7760 -134.0062
-98.3130 -104.1208 -60.3806 -42.7703 -84.5914 -166.4544
-269.0164 -382.0484 -463.1601 -433.1046 -236.6740 82.4954
323.2796 436.0211 518.3686 526.0984 454.2447 331.4526
201.7234 158.6489 182.2914 191.9678 138.3093 5.4941
-183.3190 -397.4969 -588.1987 -647.9943 -561.7709 -356.8335
-122.5818 18.7834 155.8691 307.5783 375.1018 391.5966
384.4812 330.0898 268.7815 192.2446 118.1794 141.2528
194.6538 178.2012 106.9766 44.1170 -32.4309 -111.7633
-164.3202 -205.5473 -222.4275 -298.3400 -378.8411 -398.9268
-404.6455 -414.5307 -434.6550 -411.0557 -358.4335 -293.1372
-226.1645 -193.6833 -165.0190 -134.6711 -127.9934 -173.8679
-267.5949 -360.6304 -416.1087 -400.5434 -369.3477 -312.1452
-190.9623 -127.5787 -103.7881 -77.5331 -38.7188 46.1161
131.3657 252.2066 387.5625 509.2466 603.1078 662.4032
743.4349 792.1646 768.1220 687.5989 545.9330 392.9630
196.5002 53.7511 214.0627 399.4063 379.2709 338.7693
320.6570 315.5507 298.5740 262.3124 228.3470 171.5225
104.3383 33.7132 -45.1254 -116.5836 -195.4755 -229.9568
-215.7019 -224.6915 -233.5587 -231.4373 -235.5789 -245.0016
-266.5420 -282.3749 -262.3277 -225.6708 -201.4452 -196.8852
-208.7410 -261.4487 -371.9289 -474.6657 -540.8521 -598.0298
-662.9758 -729.6045 -758.0940 -739.9872 -691.7411 -637.7222
-545.5538 -451.4397 -379.3607 -302.7319 -266.9402 -176.6809
-206.6518 -306.8193 -222.3181 -127.5116 -56.1508 14.7897
160.8207 325.5406 444.0642 595.1794 689.6190 627.4188
325.8597 -35.6007 -229.1817 -80.7295 381.2148 659.0513
670.9145 629.7710 584.3839 613.3065 644.6282 657.0642
670.9328 644.9031 567.7354 451.3066 359.9355 301.3491
267.5703 294.2400 348.6314 349.6273 326.1457 317.4817
277.2155 192.8716 75.3209 -48.9765 -177.3733 -340.4758
-488.0709 -574.3477 -622.8135 -643.9963 -665.8890 -658.1280
-624.8467 -581.4053 -508.3645 -488.3036 -466.7116 -509.4450
-545.9778 -386.3448 -285.9548 -221.3591 -112.3235 -92.8410
-135.8759 -222.3587 -326.6623 -425.8183 -432.8455 -361.5234
-289.1180 -159.4348 5.0396 164.7434 315.1726 372.7834
295.0547 153.5718 20.2140 -94.4520 -144.9482 -90.1494
55.2572 251.4726 373.5530 414.0583 494.9217 587.7181
625.6927 588.6054 443.2439 335.9967 353.7900 408.5713
456.0376 432.4401 413.8357 467.9733 505.3622 524.1542
557.0483 572.7377 565.2801 545.1098 528.5689 523.6539
453.3396 343.9003 250.4142 136.3872 23.1915 -70.0123
-132.2768 -189.5179 -238.2072 -269.3744 -304.9858 -268.7270
-182.0962 -158.0022 -209.9135 -259.3053 -222.6070 -153.0136
-128.6115 -126.6685 -127.9320 -153.1883 -197.3543 -211.1724
-211.5973 -207.2855 -186.4761 -197.3948 -233.9764 -288.7907
-339.9655 -356.5184 -375.9623 -374.3365 -292.2271 -150.2063
-37.8014 25.0159 83.1940 121.6072 156.3911 195.1455
222.3375 239.4062 228.5675 189.0765 100.7298 -9.6926
-93.0011 -157.5746 -198.0551 -202.3622 -184.3694 -201.3609
-249.5140 -257.2484 -251.5113 -263.8820 -272.0522 -279.4160
-235.1047 -89.7505 66.4158 118.5653 111.5823 134.6087
114.9506 40.7135 -0.3068 -6.3243 39.4463 87.1471
82.8712 80.3865 79.4697 70.4168 65.0806 74.2642
106.8024 144.2134 190.5955 243.6922 281.9896 315.6681
358.2654 360.5817 312.8368 275.1610 214.1489 75.3253
-82.7821 -201.1080 -322.0408 -419.9371 -427.1095 -385.3316
-344.2691 -332.7885 -314.9088 -246.4777 -209.6424 -235.9406
-213.8355 -125.1229 -63.3640 -76.0483 -152.3176 -225.7437
-248.6157 -201.3701 -98.3520 39.0978 183.4754 263.5498
307.9678 330.1942 297.7718 183.5416 6.1117 -119.6460
-143.8651 -65.2565 66.7376 169.1258 203.7358 211.6164
234.6272 265.3025 304.3953 353.4303 386.1001 371.9188
342.5585 295.2485 179.9278 31.8075 -88.9055 -227.2592
-331.1693 -335.5003 -313.9157 -289.1375 -265.3239 -241.6051
-257.6521 -323.1912 -384.4195 -402.1172 -328.0667 -192.6087
-86.9377 -45.8798 -59.6169 -112.1812 -171.4498 -263.4913
-295.2351 -224.1732 -212.8995 -243.6189 -223.5415 -150.9154
-131.4752 -130.8388 -92.3713 -88.7805 -90.4274 -85.9740
-82.7491 -60.7094 19.2087 76.3643 141.2790 230.5057
267.8661 303.4270 332.5344 385.2872 447.9977 497.8953
545.7248 588.7533 596.5630 614.7958 619.1858 596.9290
595.3621 437.5093 238.3522 127.3938 104.0574 163.6884
169.3354 151.4676 117.3137 104.8253 147.8924 181.4762
143.8602 30.0769 -60.9660 -115.4006 -149.8230 -183.4739
-208.7533 -160.2369 -75.0728 -30.5261 -33.0898 -57.2997
-105.5835 -149.1894 -154.0263 -120.5280 -61.6382 -22.6796
-42.5216 -92.0504 -136.7498 -190.0791 -217.6536 -257.8389
-220.7921 -62.4014 49.5879 144.0716 219.0784 292.4079
319.6303 210.1487 76.4874 -32.8369 -103.7683 -143.6722
-169.1097 -159.1519 -149.9426 -175.7332 -220.7204 -199.3234
-120.6007 -140.8142 -207.0972 -240.5643 -278.5812 -286.1454
-277.6506 -272.6648 -254.2398 -193.6902 -92.3677 -33.2618
-68.9404 -139.7816 -185.6644 -223.8790 -257.9052 -254.6499
-225.6492 -215.8541 -216.0500 -201.3685 -182.4993 -173.2219
-155.5013 -111.7914 -57.1361 -7.0832 31.2336 52.4743
62.7171 75.6028 94.5566 107.1939 91.0880 57.4058
35.9297 58.6739 137.6733 209.6999 264.7883 327.0997
364.0730 374.5200 356.9345 285.4837 163.8658 51.2089
-45.4054 -123.1764 -118.1851 -65.2898 8.8701 97.9065
170.4718 228.2444 313.7994 447.8155 520.7110 506.8322
474.1717 473.2962 501.8391 509.8318 557.7873 585.1751
402.0624 131.5850 -49.2501 -237.5859 -339.7709 -295.4238
-274.6272 -242.7087 -139.6446 13.6904 116.7636 114.2450
103.8237 95.6894 41.8506 -64.4034 -186.7569 -302.9963
-418.6454 -528.1831 -645.6133 -714.6044 -675.4003 -610.3054
-580.4963 -500.9304 -335.5631 -183.9247 -151.4425 -209.9709
-231.4948 -239.9657 -249.7838 -184.1233 -101.1440 -14.2134
75.9163 110.2449 109.2904 86.0985 104.9961 168.4920
219.0580 250.5913 254.2805 291.0367 330.6344 313.0995
271.0531 258.0580 278.4545 289.5747 299.2446 289.8551
289.8579 340.8524 371.3337 354.9068 323.4711 291.8450
257.1228 158.5673 10.5086 -81.9190 -85.1200 -30.2550
32.7461 97.2875 144.1239 165.1751 219.3936 283.2711
308.2323 296.4749 241.8996 172.9306 146.9322 148.5671
104.0563 -5.2129 -138.6277 -247.2284 -321.3809 -374.8390
-403.8913 -414.0817 -388.8667 -319.5161 -248.3843 -220.7417
-199.3171 -121.9066 -45.2575 -35.2795 -47.4617 15.4889
65.4333 65.2163 0.0285 -109.3400 -145.0489 -244.6077
-294.4381 -388.7536 -432.1279 -297.0773 -357.6876 -430.0681
-393.6714 -367.8422 -444.1621 -372.9714 -139.9960 -14.6659
121.3502 134.4621 75.7212 -12.0406 -198.5751 -296.6497
-271.3372 -216.1017 -158.0818 -77.5135 -36.7030 -34.1641
-24.0601 -8.2475 -2.5546 -15.2729 -21.5755 -40.9127
-80.8956 -127.2612 -175.1293 -204.6276 -182.3735 -142.4752
-128.0244 -108.5336 -94.0820 -70.4808 -46.3711 -47.6162
-10.5317 74.9276 198.4480 298.9834 368.4591 462.3286
525.5210 563.4377 577.2163 525.0824 441.7445 373.6067
278.3413 175.5448 140.0529 139.8736 164.4890 212.9420
291.1083 392.5531 453.7188 466.0941 453.6269 376.4242
220.5935 55.1711 -71.6496 -146.2417 -133.5923 -50.3657
37.2371 92.9269 86.6730 47.3770 20.6282 8.2933
-25.7172 -77.5623 -114.3646 -142.4761 -179.1230 -261.9386
-317.6385 -284.2882 -227.5318 -181.7906 -125.7100 -43.6457
-3.8255 -23.7291 -30.8915 -21.2224 -4.3827 16.8276
15.2065 9.7397 40.2385 93.8823 143.2796 194.9767
220.1310 222.9236 191.9017 35.5138 -159.6580 -323.7407
-454.7628 -475.2292 -433.3621 -392.7023 -319.3682 -94.1161
178.6583 296.7479 384.2541 435.4197 445.4217 455.2847
291.7786 17.0906 -254.3827 -480.6426 -563.5088 -516.1096
-380.5045 -200.8621 -107.6593 -186.2808 -282.5246 -270.4950
-280.6965 -319.3719 -241.7278 -16.9006 228.4786 345.5852
419.1262 512.2306 556.8877 523.1641 415.7385 298.4196
235.1895 223.3972 273.0391 345.0389 336.4798 299.9920
266.0689 232.0593 210.0113 220.3746 280.7706 275.0253
191.8308 73.2889 -41.5584 -67.0713 -4.7285 99.6790
171.2761 184.1921 195.8805 213.4448 171.7350 74.6636
0.1874 -8.4104 0.7023 -32.4585 -70.1803 -132.6453
-226.8919 -285.7357 -293.3597 -265.2831 -205.7045 -110.0180
-6.4334 68.0419 60.2827 -23.3945 -143.6027 -247.7905
-272.9963 -260.9437 -275.3972 -306.8836 -317.1163 -310.5572
-326.8626 -335.3740 -237.9991 -94.2164 67.9683 221.1019
282.5913 279.4749 121.6608 -113.2309 -262.1567 -365.5867
-431.1268 -418.5032 -349.0146 -253.0577 -182.3351 -209.9575
-303.6035 -341.3180 -238.1886 -57.1273 128.2705 222.7911
257.8232 304.8600 271.6293 237.3752 220.3644 137.3778
32.7412 -40.4495 -36.3988 10.3594 51.8853 34.7284
-59.3076 -163.4632 -235.8355 -218.3061 -152.9095 -79.0237
-1.0569 23.8565 32.3669 27.3894 2.2471 7.5998
46.3928 91.7074 104.7089 49.9625 -43.0077 -121.0306
-179.7714 -214.9249 -216.5875 -195.0277 -187.9352 -206.0458
-196.8953 -152.7781 -91.9811 -11.6611 74.9090 159.4469
221.8669 248.9467 257.2447 259.3965 257.0360 258.6342
245.3127 204.2492 171.1059 148.2302 108.1792 1.9390
-139.9586 -206.2950 -184.5265 -129.0712 -93.3724 -84.6551
-59.5486 -11.4800 25.2634 32.0193 0.0171 -61.7564
-147.6875 -244.7294 -271.4874 -247.3391 -249.6656 -275.0682
-314.8681 -284.2131 -169.5277 -65.0208 6.5772 38.0736
34.7614 19.4343 18.3860 52.8480 139.8687 208.3752
205.3094 184.3207 168.9320 194.2160 222.4535 224.0866
212.8654 176.0052 166.9706 203.0648 247.2961 279.0730
314.8104 358.9800 378.4009 383.4180 386.9472 371.1402
311.1882 178.4411 56.2457 -26.9285 -123.2220 -172.4207
-189.3606 -177.9306 -83.8726 42.8552 125.0685 156.4601
180.3951 178.5422 125.4989 43.0290 -26.6720 -66.5667
-114.0752 -174.3526 -224.6520 -263.6318 -296.1471 -327.1148
-356.0447 -366.4568 -351.9785 -328.2826 -265.2226 -141.9183
-1.7494 135.8171 235.3888 261.1463 231.7115 172.4244
93.4240 -6.4060 -120.9526 -242.7948 -359.3937 -412.2798
-350.6994 -258.8161 -225.7151 -243.7116 -280.8522 -297.7471
-300.0828 -292.3558 -269.1868 -248.4270 -231.5726 -213.4740
-193.0692 -176.9201 -129.7490 -38.1360 55.4254 132.6272
175.6373 198.5249 210.0800 197.5217 171.8515 152.6062
145.9137 144.2080 125.0464 63.8503 -9.2070 -81.2492
-128.2115 -132.7826 -100.6701 -20.7943 52.6189 92.9844
123.7645 159.3263 193.8738 203.6615 211.0032 224.2842
198.7741 147.4016 97.8212 44.5572 11.3605 -16.4715
-103.0655 -231.1405 -300.6759 -277.9612 -225.1864 -201.1990
-177.0194 -134.7532 -120.5866 -101.3965 -51.0631 -0.2497
36.5580 64.6788 106.5615 162.8647 208.5535 228.4553
260.7260 316.0893 347.2115 364.5919 379.0877 391.9016
388.2795 289.4003 212.6243 216.4496 186.6314 171.3071
182.0814 200.6858 213.7425 202.7299 194.0595 158.1290
112.3814 86.9788 38.6095 -15.3957 -70.7590 -132.2935
-132.0801 -119.3039 -135.9165 -158.0905 -177.5206 -171.4157
-170.2875 -200.6409 -275.5520 -365.0813 -444.3042 -516.1441
-524.8458 -473.5146 -412.7581 -368.3071 -336.0290 -284.8165
-234.5649 -244.0786 -278.1305 -231.8330 -127.0585 19.4994
177.3926 272.7573 361.4635 438.4345 459.3644 401.4005
295.4463 192.3380 85.2638 9.1002 3.8183 86.8923
182.4878 247.8651 279.5914 268.8851 285.7055 335.8789
399.2543 454.3491 463.9373 414.5896 331.9230 264.6303
209.0067 150.1389 62.9748 -32.5977 -77.3900 -78.5541
-57.2748 -46.1308 -63.9820 -68.3986 -43.9285 -3.8710
23.0838 2.8040 -30.6805 -42.4563 -25.9522 10.8344
31.5832 30.3997 21.0028 0.1897 -27.5053 -51.6564
-77.3826 -95.9244 -98.7383 -101.9061 -111.4869 -121.9643
-127.2903 -106.0386 -37.2673 53.7369 122.4926 152.0718
156.4443 142.8634 97.7448 29.3449 -29.5624 -55.2647
-69.9067 -96.1304 -116.5233 -122.3698 -126.4305 -139.2242
-157.2180 -174.8614 -181.8187 -172.4347 -143.3328 -86.9359
-18.3135 44.4127 86.8913 114.7325 128.4531 109.3679
62.2299 -4.9451 -74.5486 -130.2890 -164.1992 -182.9286
-186.0827 -172.8605 -137.6013 -68.7104 -8.7098 39.3092
89.3189 136.3079 151.0262 95.2583 9.1985 -55.7052
-85.7828 -89.2421 -79.9869 -88.4348 -112.8194 -148.0915
-198.7072 -232.6497 -251.2586 -254.4605 -255.1961 -277.0676
-305.0789 -330.3197 -345.4610 -346.6693 -310.1705 -220.2072
-109.0428 -2.6757 79.9367 141.3516 185.8431 199.5931
179.7474 140.1810 124.2618 147.2505 184.4132 218.7455
246.5169 266.6421 265.9001 227.1383 159.8667 98.0950
50.9598 -1.9833 -58.0722 -91.5732 -96.2078 -76.3381
-45.5424 -26.8535 -15.0032 4.2880 26.8869 45.1482
46.8963 45.9059 60.4036 68.0726 52.8219 33.2290
40.0640 69.8970 101.0265 136.4035 182.4527 240.2050
296.0171 326.4634 336.9003 338.4755 320.7797 288.0805
254.1436 219.3901 192.6716 176.2236 143.6550 76.1729
-2.6564 -65.6787 -114.1032 -150.4162 -178.0027 -169.0132
-76.6904 42.7831 97.4899 85.8962 25.3613 -61.4378
-140.6763 -196.1721 -216.7093 -224.7802 -254.3254 -293.0716
-297.3456 -262.8882 -198.7781 -110.8756 -43.8302 -16.2447
-12.4405 -9.3287 15.2113 71.0409 151.3020 201.9112
219.6770 239.4372 245.1218 248.1361 239.8887 201.2951
153.5328 120.8133 131.9500 163.2469 157.9733 85.9679
-31.1855 -139.1536 -194.7937 -190.1500 -160.0550 -136.3563
-128.4077 -115.0430 -80.3475 -44.3811 -14.7909 4.3164
-21.5900 -92.8552 -161.6743 -203.0679 -217.2841 -219.3577
-234.9220 -253.1144 -242.4007 -217.6115 -204.1833 -193.5441
-174.4073 -158.3704 -155.8242 -154.0338 -146.4162 -139.7302
-135.4975 -132.1788 -130.3692 -125.3107 -111.8016 -105.2691
-112.0858 -122.1999 -131.1655 -126.0602 -107.0485 -84.4441
-61.1353 -40.8593 -22.0848 10.3891 61.5041 106.1382
