Archivo de aceleración parte de la Red Nacional de Acelerógrafos (RENAC) Ecuador
          
Evento: 201604162358
Fecha del evento UTM (aammdd):                  2016    4   16
Hora del registro UTM (hhmmss): 23   59 15.00
Estación:                                      ACHN 
Componente:                                        N
Frecuencia de muestreo (Hz):            1.000000e+02
Unidades: cm/s^2
_____________________________________________
-0.4571 -1.1144 -2.6611 -4.9976 -7.6251 -10.4800
-13.6194 -16.2994 -17.5385 -16.9659 -15.3290 -13.2981
-11.0324 -9.1819 -7.8820 -6.6179 -5.1164 -3.3414
-1.7607 -0.5528 0.5575 1.1771 1.0500 0.0631
-2.1906 -5.5178 -9.4287 -13.9490 -19.3126 -25.2360
-31.5967 -37.7732 -42.6443 -45.7321 -46.8544 -46.3066
-44.1035 -40.3068 -35.5563 -30.2627 -24.4958 -18.1158
-10.9330 -2.8185 6.1255 15.0419 22.1096 27.1179
30.8114 32.2881 31.3417 28.2419 23.1011 16.9623
10.4930 4.8016 1.1577 -0.4884 -0.1532 2.6694
8.0018 14.9894 22.8304 30.9449 38.5687 44.8944
49.3669 51.5792 51.2339 48.7224 44.1284 38.2161
32.3655 26.8444 22.0424 17.7808 13.7244 10.1026
7.2155 5.0916 3.6508 3.1997 3.5615 4.7160
5.6882 6.2636 6.8500 6.4265 5.8116 6.8151
10.6845 17.2680 25.0483 32.7853 39.9580 45.8519
49.5022 50.5545 48.0402 41.8130 33.0780 23.0864
13.6950 6.2056 0.4314 -3.8468 -6.1208 -6.1457
-4.0006 -0.1081 4.1977 8.0680 11.5775 14.8172
17.2265 18.0938 17.2698 14.2299 8.9307 2.4236
-4.2363 -10.6890 -16.8112 -22.2669 -26.9668 -30.8491
-34.0216 -36.4429 -38.1194 -39.4948 -40.5646 -40.9374
-40.2718 -38.6128 -36.2265 -32.9822 -28.5309 -22.9694
-17.4051 -13.4942 -11.8674 -12.3535 -15.4634 -21.4347
-29.2426 -37.2466 -43.8826 -48.0355 -49.2545 -47.6369
-43.7647 -38.4517 -32.0165 -24.7416 -17.2449 -10.2140
-4.1019 1.2866 6.1062 10.2251 13.4446 16.0021
18.3221 19.8927 20.2794 18.8533 15.2821 10.4055
4.8633 -0.4396 -4.6469 -7.2440 -7.7292 -5.9846
-2.0893 3.7263 10.7609 18.1426 25.4763 32.8884
40.4790 47.6775 54.8134 61.6049 65.7965 66.6721
64.4239 59.1983 51.8130 43.0605 33.7206 24.6395
16.7082 10.6744 6.7819 4.4426 2.9327 1.7598
0.1653 -2.4567 -5.9155 -9.6736 -13.4620 -16.7882
-19.3540 -21.2432 -22.1951 -21.9898 -20.4680 -17.6647
-14.1101 -10.4782 -7.0617 -3.3451 0.3356 3.3921
5.6633 6.9550 8.3617 10.3310 12.4917 14.0089
14.3035 13.9702 13.1481 12.4889 12.2210 12.1142
12.2035 12.0277 11.6567 10.8060 9.7583 8.9537
7.4613 5.6974 4.4545 4.3431 5.4571 6.7994
7.9428 8.3000 8.0321 8.1122 8.5956 8.8524
8.5495 7.8811 6.9458 5.6219 4.1029 1.8712
-1.7579 -5.3806 -7.9658 -9.7058 -10.1808 -9.3320
-7.9814 -5.9155 -2.4696 1.3888 4.8964 7.2275
7.4521 5.4461 0.7499 -6.7570 -16.5737 -27.6987
-39.7701 -51.9124 -62.7952 -71.9067 -78.1689 -81.5329
-81.4013 -76.5854 -66.8580 -51.7991 -31.3398 -7.6122
14.6810 33.5549 49.2997 62.2125 72.4868 79.6392
83.7011 84.4560 82.1231 77.2539 70.5157 61.9059
50.8371 37.1960 21.7938 5.4194 -11.5397 -27.2117
-40.6373 -51.6537 -59.5021 -62.9508 -60.4549 -51.2596
-35.6383 -14.1525 11.5066 36.8968 60.5508 82.2382
99.2488 112.3614 120.9058 123.8150 123.1596 118.7893
112.6892 105.5588 96.6857 87.3247 76.9003 66.5653
56.7006 46.5460 35.1228 20.7369 4.2658 -13.9683
-32.8616 -50.5931 -66.4584 -79.1706 -88.4718 -94.2285
-95.9832 -93.8142 -88.4101 -79.8960 -68.6569 -55.8131
-41.5874 -25.8850 -9.2206 6.9596 22.0037 35.0289
44.1883 48.1203 46.3140 39.0520 26.6327 9.5843
-10.7986 -32.4427 -53.2344 -71.7392 -87.7527 -100.9887
-110.4879 -115.1840 -114.6915 -109.0701 -98.2544 -84.1328
-68.5934 -51.3904 -32.8837 -14.4986 2.8922 17.8590
30.7138 41.8268 50.8150 58.6938 62.5421 61.1657
55.1162 42.6287 24.4305 2.2367 -20.8795 -42.7235
-62.2216 -79.0141 -92.8899 -101.9756 -107.8208 -110.3488
-108.2194 -104.1124 -99.8149 -96.5908 -95.6371 -96.9646
-100.1859 -104.3960 -108.4210 -111.6294 -113.6926 -113.9771
-110.7751 -102.2067 -89.2718 -73.5749 -55.6676 -35.3280
-11.9485 13.0293 38.1084 62.7142 85.6547 105.7604
122.5381 135.7649 145.4583 152.1881 156.5621 158.9300
159.6379 158.1290 152.9569 144.8157 133.5250 116.8937
94.8380 70.3629 47.3387 27.7144 13.0072 2.8167
-2.6003 -5.4948 -8.1517 -9.6174 -13.7603 -20.4993
-28.7777 -37.7474 -45.2018 -52.0864 -56.4953 -58.0355
-57.3763 -54.5776 -50.6704 -44.8686 -35.9890 -24.9055
-15.9689 -13.6056 -18.3809 -27.3728 -36.7587 -44.3585
-51.4990 -59.1237 -65.5976 -70.5341 -73.1689 -74.3704
-73.2426 -68.5842 -62.1636 -51.8433 -40.1687 -30.6779
-23.0210 -19.5511 -19.1506 -20.6779 -23.2750 -23.7961
-24.3586 -26.0084 -27.1417 -27.4860 -28.4757 -31.5322
-34.4120 -38.4922 -44.0105 -48.5741 -52.4638 -53.8402
-53.2105 -53.0779 -53.5677 -53.0466 -51.0166 -47.7631
-41.1372 -31.3518 -19.6035 -8.2733 -0.1689 4.0384
2.7246 -3.4077 -11.8702 -21.9355 -33.3367 -44.8198
-54.8142 -62.0246 -67.1185 -69.7294 -68.2721 -62.4426
-51.9151 -37.7484 -22.3645 -7.8489 5.1459 16.0122
25.2268 31.9696 38.0808 44.9174 52.8156 61.3112
67.4426 74.8786 80.0379 85.8075 92.0255 96.8174
104.0803 105.6923 107.9801 111.1692 110.6674 110.6950
108.9385 105.4603 102.3670 98.7977 94.9927 92.3808
89.2129 87.2685 86.7281 86.7419 89.7782 94.9024
101.3156 108.4643 116.8090 126.5235 134.9234 142.2379
147.4505 149.7079 151.1736 151.5897 149.6757 144.8599
136.7159 125.4759 113.2535 99.0186 83.1349 65.8877
45.0675 24.4029 3.0505 -20.1145 -43.0991 -64.0556
-83.3843 -99.0195 -108.9559 -120.7981 -131.2758 -139.1104
-145.8836 -152.2875 -156.8309 -159.2475 -163.6344 -162.1890
-161.5823 -163.2302 -162.5130 -161.9211 -157.3234 -148.5019
-136.6560 -123.3979 -111.0955 -103.2912 -99.3868 -98.9808
-101.2355 -104.0176 -107.3273 -110.6738 -114.1465 -115.4961
-115.3820 -114.3683 -111.2225 -107.1846 -103.3585 -101.2309
-98.9882 -98.5187 -100.3471 -102.1773 -107.9451 -116.7951
-126.6662 -134.6656 -144.3047 -153.9456 -161.1459 -171.2029
-177.8251 -184.0568 -190.3825 -193.5541 -195.4967 -194.6184
-191.6641 -186.3465 -176.4717 -157.5112 -128.5793 -91.6351
-54.6246 -23.3828 3.7806 26.6511 48.2308 69.8087
91.0220 113.3676 134.2422 152.7525 168.8489 181.2627
189.7206 191.5453 187.9852 180.6809 168.3683 154.5137
142.3401 129.8203 116.6902 104.5480 92.7040 80.9428
67.8495 54.8428 41.6547 28.7510 20.6568 15.0952
13.0128 14.7528 18.3515 26.9714 43.0301 62.7409
85.8728 112.2933 134.7973 156.1312 174.6065 187.1916
195.4010 199.9590 203.6793 205.1956 206.1282 206.9384
207.8434 209.1636 209.4269 209.3541 208.4832 203.6563
195.7839 188.9040 182.1171 172.2009 159.5348 146.1110
131.1028 117.6974 106.5936 97.4167 91.6259 87.6920
84.9292 84.2553 84.2534 82.4518 80.7145 76.6250
72.9766 64.5583 50.5453 41.5184 24.9525 4.8403
-12.0111 -33.1470 -54.4598 -78.7701 -95.6665 -108.6742
-132.8584 -148.9999 -157.0389 -166.8014 -176.1504 -185.8769
-192.3039 -196.5812 -199.9470 -202.2753 -203.6259 -205.9275
-208.5559 -210.3364 -212.0783 -206.7561 -187.6050 -149.5238
-100.5929 -61.7337 -34.1321 -8.1103 11.6815 24.1773
32.4796 34.1368 30.9523 22.7319 12.8194 6.2221
1.6843 -0.3061 1.5867 5.2214 10.4810 14.8881
12.2256 1.6254 -14.7444 -33.2686 -57.3524 -84.2562
-107.5225 -129.5533 -149.1813 -163.6850 -169.9370 -169.4592
-163.9188 -156.7784 -149.7788 -140.3147 -132.0768 -125.9472
-121.9912 -120.0367 -118.9356 -117.4387 -113.1688 -106.8035
-99.4172 -89.4320 -76.1251 -60.8564 -44.8428 -27.7530
-9.9019 7.7034 25.4726 42.0809 59.1191 75.8149
90.0728 103.3263 115.1831 125.8331 135.6968 145.0007
153.6123 161.0787 166.1035 172.5314 182.5194 190.7462
197.1502 203.9113 210.2241 214.6404 217.0138 217.8525
217.6196 214.0263 204.7150 192.4337 178.1777 163.1916
148.6124 133.8177 119.6409 106.9591 95.8203 85.4180
77.3809 71.1058 64.8529 59.3162 55.7993 54.7516
54.8179 56.1851 58.8070 62.2244 66.7816 72.1802
77.0679 82.2299 87.9572 92.1976 96.4132 100.7089
104.9816 109.3850 110.9500 109.5083 104.4338 95.1639
82.7261 67.6737 52.9371 38.5586 23.8422 9.7399
-3.9923 -15.9219 -26.3730 -35.2433 -42.5283 -48.9912
-55.3777 -63.1267 -73.8116 -87.1985 -102.1294 -119.2753
-136.9065 -157.1559 -171.6016 -182.6602 -198.2503 -207.2965
-212.8028 -213.2742 -208.5403 -200.6734 -187.1198 -171.8722
-154.4326 -135.9205 -116.7519 -99.7118 -86.6231 -77.3312
-72.1351 -70.4761 -71.2126 -71.5606 -71.6352 -71.2117
-70.4715 -70.2091 -70.0323 -69.9743 -69.5352 -68.4599
-67.0743 -65.8416 -69.4036 -79.0620 -90.3701 -102.7021
-114.8821 -125.7622 -135.0827 -142.3723 -148.4190 -152.5370
-154.5035 -154.6250 -153.0176 -150.0200 -145.0697 -138.0738
-129.5193 -119.1768 -107.7987 -95.7890 -83.0612 -70.1180
-56.6831 -43.6202 -32.3028 -22.6987 -14.9148 -9.0116
-4.2768 -0.6062 2.4816 6.3326 12.6647 21.6953
32.5358 44.4203 55.1457 65.3021 75.7026 86.0201
96.6139 107.3494 116.5742 123.9540 127.9864 128.8426
130.3331 130.3856 133.6815 134.9207 140.1664 143.3270
133.6419 148.3840 161.6127 153.6547 151.5934 144.8092
138.2727 132.1394 122.9782 118.8233 114.8158 110.9003
110.9961 115.5661 121.5484 126.3274 131.3771 136.7684
142.3686 147.2213 150.1646 153.6335 156.0732 157.1955
158.0415 156.1643 153.0222 146.3062 136.9958 127.4331
116.0513 107.0981 99.3638 91.9794 87.0632 83.4755
81.1886 79.1301 75.5111 70.8821 66.5293 63.1653
62.3101 62.5724 62.1876 59.8961 54.2839 46.0884
36.6565 27.2504 17.8626 8.5918 0.6486 -4.5935
-7.8876 -10.7424 -13.2724 -15.5795 -17.8940 -19.3541
-19.8383 -20.7516 -21.9171 -23.4776 -26.3169 -30.6429
-36.8821 -45.0435 -54.9873 -66.2651 -78.5363 -91.8579
-105.9399 -119.6896 -131.0650 -141.0751 -152.6604 -165.3882
-176.9993 -186.1007 -191.4910 -193.2043 -191.9255 -187.2229
-180.9055 -173.5883 -163.5009 -150.5917 -135.1950 -119.3094
-105.7310 -95.7089 -89.1963 -85.2146 -83.2048 -82.5208
-81.5210 -79.6337 -76.9445 -72.9314 -68.1837 -63.0981
-58.3403 -54.2462 -50.7883 -48.7574 -47.5513 -47.7042
-49.2333 -50.4937 -50.6180 -49.1081 -45.9356 -40.6917
-34.2159 -28.2180 -23.2235 -18.5062 -13.2134 -6.7616
1.5821 12.0829 24.2012 36.6086 47.4694 56.2882
63.8033 69.4965 74.9320 80.9511 87.2206 94.6161
101.7833 108.3133 112.8825 114.2975 112.6799 107.4553
99.8352 90.0212 78.7683 67.1627 55.7993 45.6456
35.9163 26.6289 18.3616 12.1041 8.4105 6.7533
6.3731 6.1881 5.6476 4.6874 2.9842 0.7333
-1.3216 -3.4786 -4.2621 -3.4832 -1.4100 3.4667
10.5712 18.5062 25.8998 31.6648 35.5076 39.0806
42.8239 46.3122 49.9468 53.2620 56.4336 60.0738
63.9893 67.7685 71.7871 75.9456 80.1400 84.6797
89.6935 94.9604 100.3526 105.3774 110.3268 115.6582
120.1343 124.6160 128.9779 132.0004 134.2173 134.5846
131.7942 125.4455 114.7246 98.6356 77.7169 54.2775
30.1228 7.2293 -10.6559 -21.7846 -25.9311 -23.5439
-17.4410 -9.7205 -1.9375 3.9840 5.7609 1.8519
-5.4285 -14.0466 -26.1429 -42.2807 -60.5047 -80.5580
-99.7717 -113.9136 -125.2862 -138.8702 -155.7878 -173.5579
-189.0255 -198.7705 -200.2601 -195.8272 -189.4592 -183.1289
-176.4800 -168.7283 -159.8929 -148.3877 -131.8393 -111.0292
-90.2606 -75.2312 -66.9059 -62.0523 -60.6133 -62.6700
-68.0723 -75.8572 -84.2258 -93.1440 -101.0237 -106.5015
-109.1981 -109.5866 -108.7912 -106.8486 -106.3607 -109.1705
-114.1465 -119.6970 -121.4481 -119.2790 -113.6926 -103.5435
-91.9214 -78.3485 -63.1672 -48.8071 -34.9101 -22.7264
-13.0293 -6.9043 -6.8031 -9.7077 -14.9360 -23.6295
-31.5194 -35.9467 -36.2137 -33.1903 -27.8212 -18.6866
-7.0102 5.3659 19.0355 34.8797 53.5511 75.6132
112.6145 152.0693 180.0355 205.4442 219.6625 220.2471
213.2005 219.7720 219.5732 198.4501 196.9697 200.7959
201.0859 205.7958 204.5088 196.6852 183.2798 171.5592
162.0960 153.5414 149.5532 148.3684 146.3743 140.4058
131.2777 120.8846 110.0368 101.2244 93.8731 87.6423
81.7999 74.5462 67.1765 60.3233 54.6172 50.9577
49.1578 49.1698 50.6005 53.4250 57.8091 62.2539
67.2115 72.0752 75.5129 79.3786 81.6618 82.9461
84.9798 85.7752 85.4060 82.5705 75.9069 65.6483
52.9868 41.0728 31.8526 25.3382 21.2423 18.9775
17.8857 16.5047 14.0963 10.8962 7.1952 3.7134
0.2518 -3.5486 -8.0791 -12.4088 -16.4762 -22.3020
-28.8910 -36.6298 -47.3994 -64.8740 -97.1083 -149.3986
-205.6320 -231.0673 -226.7367 -227.9998 -244.4285 -258.7895
-267.9803 -277.2446 -279.8565 -278.7241 -279.8813 -281.2890
-284.2507 -285.0507 -281.7428 -277.9903 -273.0180 -268.7066
-263.0742 -253.1276 -240.3685 -221.9346 -201.0776 -181.4515
-162.9255 -148.3868 -136.8973 -128.0334 -122.9717 -120.4786
-119.3601 -118.9614 -117.7803 -114.9594 -111.7786 -107.9092
-102.7435 -96.3018 -88.1155 -79.2617 -70.5304 -62.2521
-55.1788 -49.9505 -45.9273 -42.8625 -41.2947 -39.4783
-37.4630 -32.9418 -24.2786 -14.1718 -1.7856 9.6331
18.8864 28.8550 38.1056 47.8634 57.6516 65.9199
73.9285 79.8629 85.1998 92.5990 100.7567 110.5873
121.0697 130.7382 139.7466 147.5251 155.3873 164.1628
173.6831 184.3883 196.7911 209.9516 224.4875 240.1420
256.3001 273.4829 288.2600 303.1292 318.2681 328.3629
336.0659 343.2533 348.2689 349.7668 349.3857 348.0876
344.8303 340.4546 334.2670 325.2503 313.2249 299.1143
282.9065 263.3006 240.5968 216.8877 194.8541 174.3699
156.8217 143.2193 132.2333 125.0358 117.9551 109.7256
102.4553 94.4541 86.0892 77.3873 69.1347 60.9760
53.0429 46.2440 39.7775 34.7287 30.7617 27.7843
25.7147 23.9259 22.5505 21.2810 19.6735 19.0429
19.1165 16.7634 14.8632 14.0632 12.0727 9.9258
7.8452 6.0371 3.3801 1.2056 -1.0675 -4.2041
-7.5469 -12.0332 -16.9733 -24.2767 -33.8164 -46.3969
-61.4373 -75.9208 -91.9877 -111.6341 -135.7704 -162.6622
-190.4314 -217.1243 -242.8248 -266.9105 -283.8235 -294.6060
-305.8626 -319.4135 -330.4408 -338.5627 -345.6608 -350.8191
-354.8322 -357.6696 -360.1857 -362.2967 -362.6631 -361.3779
-358.0618 -352.2526 -341.5078 -322.9054 -293.7213 -254.8161
-215.4110 -178.6472 -145.4325 -120.3313 -100.5248 -84.3833
-73.6744 -67.9453 -64.9762 -63.7269 -65.2736 -68.3762
-71.7310 -73.9534 -72.8974 -68.4461 -62.1434 -54.7065
-46.8406 -39.4267 -31.5157 -24.4323 -17.9446 -11.7101
-6.2553 -2.0636 -0.5556 0.6872 -0.0990 -2.1262
-1.9845 -1.1531 0.6734 3.4749 6.0030 7.6979
9.1212 10.4533 11.8426 13.2410 14.3246 14.5069
14.7978 16.5470 17.9961 19.2114 21.3537 23.1986
24.9294 28.1811 32.2752 37.1536 42.9049 49.1145
56.0258 63.4774 71.3930 80.0489 90.1013 101.1508
113.4348 126.9682 138.6299 148.6059 158.5957 167.2856
176.1476 185.5658 196.1393 209.3384 223.0182 235.7064
246.2532 252.6838 253.7564 249.8869 241.5110 229.9257
217.4879 204.7076 193.2135 183.4778 173.2025 162.7487
151.7802 139.4649 124.6132 108.4514 93.4128 78.4166
65.2202 52.2189 40.4016 31.4880 22.8543 15.7921
9.9663 5.6706 3.0091 1.2295 -0.2270 -1.6816
-2.8314 -4.5678 -6.4965 -8.8589 -11.1881 -12.6712
-14.9802 -18.0799 -20.4626 -22.6785 -25.5500 -28.1582
-30.2793 -32.4575 -34.5897 -37.1555 -39.5510 -41.7108
-44.6062 -48.3422 -53.3882 -60.2884 -70.6501 -85.1778
-107.0871 -132.1284 -147.5509 -158.3481 -170.0273 -177.0131
-182.6271 -191.6963 -201.5361 -208.9684 -216.3998 -224.3596
-230.3437 -234.9460 -239.2997 -244.5731 -248.2068 -248.5714
-247.9702 -245.6051 -240.4790 -232.9519 -221.5673 -204.1783
-178.6067 -144.2946 -110.3820 -83.8548 -63.3835 -44.9846
-28.4445 -15.8548 -2.3389 3.3589 -2.2091 -11.3142
-24.4821 -38.0246 -50.5269 -56.5543 -55.6171 -54.2315
-48.8310 -42.8046 -31.3224 -17.1142 -12.1879 -2.9677
7.3149 12.9188 17.6610 20.8786 23.7621 26.3564
34.1570 45.6769 72.6110 113.7589 159.4381 196.4587
219.5750 252.1287 262.6930 251.1335 242.6093 223.1231
211.6078 209.4507 203.0477 193.7235 184.2253 175.6560
163.9612 151.7729 140.7529 121.7436 91.8781 63.3568
44.7397 33.9793 31.5930 34.4792 34.5317 38.6893
43.7758 47.5403 52.6010 50.2304 44.9376 39.6127
35.2553 33.4913 32.4418 31.8894 30.1025 29.5593
29.4949 29.3227 30.0261 29.2969 26.9677 21.7707
14.7223 8.4694 5.2812 8.0155 13.4703 16.4099
17.3019 17.9169 16.0131 10.5831 2.6242 -8.8110
-21.6327 -34.6045 -47.6922 -59.2241 -69.9072 -77.7123
-83.1367 -86.6342 -86.1260 -83.9929 -80.1401 -73.6671
-66.1602 -58.2593 -50.7101 -43.3588 -36.6676 -32.1859
-28.3543 -26.2782 -26.9245 -29.3090 -32.6048 -35.5242
-38.4592 -39.5188 -40.7755 -42.2734 -42.5523 -42.7622
-41.8775 -42.3387 -42.4906 -43.3312 -47.0036 -50.8592
-57.1647 -66.4797 -78.3292 -92.0641 -106.0155 -120.3396
-132.5970 -143.4808 -155.8845 -167.2396 -180.1681 -193.4161
-202.9042 -211.3013 -215.9284 -219.5815 -221.1309 -217.7844
-217.8756 -214.8071 -204.6819 -194.8053 -182.8720 -168.6003
-150.7621 -131.0770 -112.2565 -91.4473 -73.9368 -61.9906
-52.9362 -47.3000 -44.9119 -43.3229 -42.6398 -45.7046
-49.9699 -52.1260 -52.1315 -49.4212 -43.0356 -33.6470
-23.2355 -13.8239 -5.9607 0.5546 5.9974 11.3473
16.6244 21.7864 26.4715 30.6935 34.9331 39.5758
44.5638 50.6170 57.8836 66.8589 80.1713 97.6164
118.6659 141.8383 167.8840 190.0078 198.5421 199.3909
200.4432 208.7216 225.7193 242.4629 254.7967 266.0993
274.4201 277.0356 276.2144 273.6347 271.7769 270.2505
267.1258 261.9445 254.4524 245.7689 235.8481 224.7259
212.6702 199.8623 186.3428 169.3165 154.0137 140.6442
121.4112 104.4218 91.2152 76.9702 64.7405 53.4968
43.6211 35.9513 29.5961 24.5612 20.1403 15.8179
11.8509 7.8765 3.8284 -0.2095 -4.8384 -9.1921
-13.0413 -16.9457 -20.5040 -23.8468 -26.7229 -29.1304
-31.6575 -33.8339 -35.4809 -36.0876 -36.5884 -38.1646
-39.4525 -41.4835 -44.6081 -47.4041 -50.5968 -54.1431
-57.8561 -62.9803 -70.4725 -80.1355 -92.4619 -105.4686
-115.5855 -124.5976 -135.3184 -146.8641 -157.9725 -169.7318
-182.2506 -195.0567 -209.1691 -221.4532 -230.9541 -241.3012
-251.8756 -262.1241 -270.3500 -274.4754 -277.5033 -280.6261
-282.0089 -282.6451 -282.9480 -281.6204 -279.0620 -274.8464
-267.4076 -255.3151 -236.7551 -209.3228 -174.4363 -141.1598
-116.4444 -95.5138 -74.9919 -55.0030 -37.3277 -25.6402
-18.7502 -16.1347 -16.4661 -20.4653 -27.4751 -34.5023
-40.8519 -45.5278 -46.7016 -44.1275 -40.9292 -35.8584
-29.9635 -24.8641 -18.9822 -13.9638 -10.0253 -5.7057
-2.1318 -0.5078 0.4211 0.3429 -0.2454 -1.3612
-2.7468 -2.8103 -3.5707 -3.2375 -2.2478 0.3678
5.0685 9.5097 17.5514 24.8953 36.0397 48.6800
65.2966 90.3259 117.1956 154.8901 192.0848 238.4250
278.0704 288.5684 288.6577 269.7625 259.8878 272.6368
290.5542 305.6103 305.5228 301.5807 297.6146 291.2484
285.8129 284.0637 285.0295 284.5038 284.8214 284.5572
281.7409 278.9330 273.8428 264.3243 251.4548 233.5318
209.4839 179.8127 149.9574 125.3589 103.8777 85.9584
71.0818 57.7842 47.4859 38.9544 32.4077 27.9353
26.1990 26.4374 26.2625 26.8959 27.1159 26.9088
26.8655 25.5103 24.0042 22.0497 19.1856 15.9799
12.4253 8.9573 6.0324 4.0733 2.1501 -0.2297
-1.5214 -2.5516 -3.2135 -2.7624 -3.0671 -3.2899
-3.2283 -3.5284 -3.7751 -4.7630 -6.0887 -6.7248
-7.7633 -9.3293 -10.9616 -12.0130 -13.8920 -16.8215
-18.1076 -20.7461 -25.0022 -29.2335 -35.0768 -42.4713
-51.0719 -60.8555 -71.6684 -85.2643 -100.8369 -117.5603
-134.2717 -147.4524 -157.1237 -163.2781 -167.6318 -170.8384
-176.6034 -185.5152 -193.4888 -202.1861 -209.2400 -215.3632
-221.3040 -224.3983 -225.4395 -224.1948 -220.4727 -214.2013
-208.7014 -201.4459 -191.0943 -182.9549 -174.4050 -164.9666
-154.2587 -142.2315 -131.1489 -120.9068 -111.1361 -101.7566
-94.5812 -88.9763 -83.7959 -79.4818 -76.0303 -71.4778
-66.8654 -63.3403 -59.5187 -55.8564 -51.8158 -48.2290
-45.7653 -43.4499 -41.2100 -39.4194 -37.3332 -34.9819
-32.9510 -29.8807 -26.9199 -25.3005 -22.4373 -18.4989
-15.8023 -13.3663 -10.5713 -8.7779 -6.4569 -3.4842
-0.6845 2.5902 5.0188 9.1782 13.9490 17.7613
22.7751 26.3232 29.7526 34.5031 38.1636 41.1179
45.3316 51.0700 57.7860 65.6086 73.1938 80.0451
88.2692 96.5347 103.2967 109.6602 115.2061 120.2116
123.3160 125.9665 129.7310 132.5269 134.3618 135.0946
136.4995 137.1734 136.4268 136.2325 134.9206 133.0747
129.0893 124.2615 120.2677 112.3181 102.1598 92.3651
83.1366 72.9802 62.3229 52.8376 43.0632 35.4771
27.9795 22.7981 22.6361 21.0406 18.0108 17.2228
17.5763 18.2612 20.4965 22.0230 23.1682 23.9867
25.5057 27.6066 28.2041 30.1273 30.3593 28.4297
28.4490 29.1551 28.5245 28.6699 29.8640 30.4864
32.0008 33.4462 35.0085 37.3617 39.1643 40.9549
42.7759 43.9083 43.2473 41.3996 41.0056 40.6161
38.8273 36.5966 35.9430 33.3431 30.3915 28.6055
23.0412 21.1401 16.8701 8.2097 3.1122 -2.2653
-9.5991 -19.2676 -26.9015 -33.3856 -39.9129 -45.7156
-51.7467 -56.1676 -59.7995 -61.1087 -62.8634 -61.5055
-57.7134 -62.7428 -67.1932 -68.3025 -70.9678 -72.2530
-74.0326 -74.6466 -73.0862 -68.8816 -63.5051 -58.9378
-52.7392 -45.4910 -38.1259 -30.5150 -24.0494 -19.0614
-14.9774 -12.0102 -10.0714 -9.4987 -10.1607 -11.4183
