Archivo de aceleración parte de la Red Nacional de Acelerógrafos (RENAC) Ecuador
          
Evento: 201604162358
Fecha del evento UTM (aammdd):                  2016    4   16
Hora del registro UTM (hhmmss): 23   59 15.00
Estación:                                      ACHN 
Componente:                                        E
Frecuencia de muestreo (Hz):            1.000000e+02
Unidades: cm/s^2
_____________________________________________
-16.1776 -21.4547 -25.1281 -26.2734 -24.9640 -22.4157
-20.1215 -17.8877 -16.3023 -15.9199 -16.7277 -18.5617
-20.5158 -22.1260 -23.7132 -25.2547 -26.7521 -28.0413
-28.2917 -27.4545 -25.6746 -23.0301 -19.9775 -17.0799
-14.8580 -13.3029 -12.3336 -11.7229 -11.3515 -11.4240
-12.2034 -13.5367 -15.0946 -16.9753 -18.2270 -17.6896
-15.2716 -11.6092 -7.8524 -5.3490 -5.0309 -7.2930
-11.6367 -16.6966 -22.3139 -28.0239 -33.9329 -40.4571
-45.2831 -47.8846 -48.9373 -48.3807 -46.6577 -43.7454
-39.5796 -34.0512 -28.4723 -23.6839 -19.3521 -15.4385
-11.6230 -7.5864 -2.4349 3.8326 9.9231 14.1623
15.8981 15.1269 11.3444 5.0944 -2.4221 -9.8835
-15.6732 -19.0908 -21.0045 -21.7628 -21.0549 -19.6749
-18.0427 -15.3239 -10.9967 -5.5526 0.0648 4.9917
9.0107 11.3573 11.8011 11.3729 10.0634 8.2552
5.4070 0.1500 -7.0152 -14.5380 -20.8018 -25.2491
-27.8790 -29.8413 -31.6955 -32.6821 -32.2411 -29.5442
-25.7727 -21.9279 -17.7107 -13.2487 -8.2778 -2.2460
5.6042 14.3915 22.6314 29.6023 34.6538 37.8055
39.0150 38.7811 37.9476 37.0105 36.4649 36.1769
35.4846 33.5581 30.3459 26.2076 21.2441 16.0503
11.3784 7.3327 3.6556 0.6296 -1.5922 -2.5523
-1.5344 1.6759 6.7963 12.3403 17.6046 21.6017
22.9946 22.3939 20.8553 19.4000 17.7064 14.8308
10.5568 5.1320 -1.0769 -8.4337 -16.0895 -22.6624
-27.6589 -30.5529 -31.2581 -30.0907 -27.6589 -25.0190
-23.1309 -22.4725 -23.0686 -24.3349 -25.3381 -25.6049
-25.5710 -25.3803 -24.7136 -23.4647 -21.3951 -18.4782
-14.7535 -10.8554 -7.5663 -4.7484 -2.2478 0.0538
2.3838 4.4653 6.3387 7.8737 9.4518 11.5361
13.1032 14.8638 16.5263 16.8609 16.3694 15.4864
15.2342 15.6221 15.8853 14.5777 9.9662 2.1179
-7.1298 -15.9776 -24.1864 -31.6193 -37.9345 -43.4473
-48.8190 -53.4130 -56.6334 -57.6036 -55.5321 -51.3260
-44.7210 -36.0566 -26.2532 -16.0794 -6.6502 1.4210
7.8847 12.8015 15.5992 16.7564 15.2993 10.7686
5.0953 -1.2997 -6.7612 -10.6748 -13.5275 -15.4935
-16.5682 -15.6503 -14.5077 -13.5880 -11.8403 -10.0668
-8.2210 -7.2756 -7.1417 -6.6630 -6.5429 -6.8794
-7.8468 -9.3947 -11.5991 -14.4555 -15.7832 -15.4302
-14.0795 -11.7100 -8.8748 -5.6470 -3.3913 -2.3377
-1.4308 -0.2231 1.8657 4.9009 7.3189 7.1236
5.7234 4.0912 1.7245 -0.2846 -2.5147 -5.0849
-6.3806 -6.5292 -6.5136 -6.9895 -8.2989 -10.7701
-14.5600 -19.7684 -26.5310 -34.2639 -42.1810 -49.5965
-56.5353 -62.2388 -64.3965 -62.5589 -58.1079 -53.0728
-48.9758 -46.8282 -47.1721 -49.1417 -52.4538 -55.0470
-56.2446 -58.1418 -61.3118 -65.2914 -67.9818 -69.1372
-69.1803 -68.1010 -65.8700 -61.8766 -58.0088 -55.2634
-52.9224 -51.2187 -50.5282 -50.7602 -51.8083 -53.4561
-55.6788 -57.7007 -58.2803 -56.9607 -53.2369 -47.6425
-39.9372 -31.2800 -23.6802 -16.1555 -8.4988 0.4004
11.3399 22.6361 33.7993 44.5177 54.5155 63.0030
70.4864 80.4557 92.4442 105.8466 119.7085 130.0684
137.7416 142.9867 144.8949 144.4979 141.6837 136.3735
128.8617 119.2913 108.7910 99.3756 92.8742 90.2526
91.2723 96.0029 103.5799 112.5515 121.8414 130.6324
138.4587 144.3585 147.8485 148.2281 144.0788 134.6588
122.0990 109.1303 96.0726 82.1548 67.3586 53.0227
40.0374 29.1099 20.4500 15.2829 13.9019 13.0812
13.1656 15.8816 20.0484 25.1706 29.7334 31.1263
28.7284 23.1624 15.2425 5.9316 -2.9731 -9.7917
-15.2780 -19.8271 -24.7218 -32.6106 -40.3700 -46.6714
-51.5176 -53.0260 -53.9833 -54.2153 -53.4707 -53.7156
-55.9548 -60.6222 -67.5637 -77.5541 -88.5165 -99.8722
-111.3353 -121.3404 -130.0644 -136.9812 -143.0570 -148.5057
-152.3349 -153.7617 -151.5307 -145.9821 -138.4428 -129.4409
-119.1250 -106.5973 -92.2595 -80.7314 -73.9779 -71.4874
-72.9353 -76.9305 -82.5433 -87.9828 -92.4539 -96.3914
-98.9158 -100.1299 -101.9684 -104.1967 -106.0994 -107.4253
-106.9641 -103.9794 -98.0823 -91.5012 -82.9743 -71.2325
-57.0955 -42.5093 -28.0174 -10.4483 9.6316 34.6594
57.5213 84.9562 112.6561 127.9035 152.2747 173.9318
186.3421 197.4622 199.6959 198.8725 195.7933 191.9778
188.8784 186.9839 186.0789 183.3142 178.4185 168.9636
151.3303 126.9663 98.6512 66.8534 37.3709 11.7654
-10.7619 -29.2462 -45.7691 -61.4346 -76.3162 -85.8004
-88.9108 -84.0471 -70.8217 -55.9594 -39.4420 -22.7604
-7.1325 6.4341 16.8307 26.1031 31.4518 32.8346
29.9443 21.7915 8.3304 -7.1279 -21.3483 -36.7562
-49.2609 -57.8905 -65.1804 -70.9299 -73.5973 -73.9614
-74.8710 -74.8013 -74.8912 -77.2340 -81.0661 -84.3717
-86.6495 -88.7521 -89.8167 -86.9695 -80.5434 -70.4503
-57.4990 -45.5673 -34.5646 -25.7938 -19.2072 -14.2583
-12.4546 -13.9942 -18.8367 -25.8790 -34.8158 -47.6388
-62.5148 -75.4762 -86.8485 -95.5129 -102.9257 -109.0823
-113.4572 -117.1159 -118.7472 -118.8563 -116.3970 -116.9178
-116.0210 -115.9614 -113.9019 -104.1004 -99.2129 -86.1103
-71.9660 -59.9124 -41.1622 -26.9867 -11.6807 2.4233
15.1536 27.5740 33.9102 39.8183 45.3971 53.2198
66.0996 80.3173 99.3481 118.8658 135.9939 152.2225
163.1785 168.7142 170.5271 169.1351 164.4200 157.6033
148.7022 140.2799 134.8349 132.9588 135.0595 139.8856
147.9723 158.0893 169.7587 181.1749 190.7344 198.6341
203.4931 207.8634 211.2910 210.6868 206.3110 198.2856
186.4411 173.8529 163.5022 154.7277 148.9095 147.8614
146.7784 145.7157 147.7834 146.6941 147.3690 147.1003
143.1344 143.3123 142.3220 141.8369 140.6769 137.4638
132.1372 124.6748 118.9667 112.3251 104.3227 95.0860
83.4726 68.7313 51.0228 29.9086 8.1259 -13.3358
-35.0671 -56.5600 -78.5746 -98.3491 -117.0480 -132.7044
-143.3302 -151.8507 -156.5099 -155.9936 -152.1112 -147.1852
-139.2781 -131.2335 -121.6989 -111.1262 -105.4997 -98.0245
-92.3952 -89.0455 -84.6532 -82.3791 -80.6112 -82.2306
-85.7380 -90.9877 -100.5269 -113.9532 -128.2901 -136.3952
-137.6203 -136.6483 -136.9674 -139.4808 -142.1739 -146.2810
-149.0503 -149.6858 -148.8807 -143.4228 -140.3611 -137.8568
-136.0458 -138.7041 -144.1087 -154.7942 -166.5855 -179.4103
-190.9871 -198.7896 -204.2144 -204.5188 -199.7542 -189.7272
-174.4119 -158.5831 -146.8853 -137.2342 -129.0750 -120.0758
-109.1795 -100.8369 -94.3117 -90.4824 -89.9717 -89.0226
-85.3978 -81.9711 -77.2817 -69.2719 -60.9202 -50.2209
-39.5997 -28.2109 -14.7323 -1.8168 11.2042 24.1299
38.3145 52.5019 70.6588 88.4572 105.8430 122.3402
126.7692 135.7060 149.9457 161.9011 176.3893 186.6456
195.9300 204.4835 210.7235 214.9855 216.9992 218.0381
221.0440 231.2774 239.7117 244.1471 248.8108 252.3668
255.0416 253.5295 247.4023 237.8420 231.5094 234.6940
238.2409 238.3481 237.1469 232.8573 227.1638 218.5865
209.3251 204.1286 197.9106 191.8183 193.1644 197.5337
201.7326 206.9776 210.5474 212.3181 213.2240 212.9508
213.1534 213.0911 209.2526 201.7151 186.1642 153.9308
116.3350 88.0143 66.1235 48.4379 32.8576 22.3711
19.2002 18.7417 16.4053 9.6536 3.5989 -1.0419
-7.2241 -13.9290 -20.6358 -26.3338 -30.6133 -35.4549
-42.0406 -49.1903 -57.1743 -68.7740 -83.4355 -100.7616
-118.6233 -134.0450 -147.7170 -159.1571 -168.1260 -173.7214
-173.8635 -167.5685 -159.6266 -155.4031 -154.9886 -158.6015
-166.0143 -176.1275 -188.1683 -200.2567 -210.4379 -217.2968
-221.0225 -223.9210 -227.2780 -230.3710 -231.8620 -232.5323
-233.6565 -233.9132 -232.3425 -228.2959 -221.4048 -213.5895
-204.1456 -194.1909 -185.0414 -175.6351 -167.5493 -160.3364
-156.4136 -154.0964 -153.0703 -156.2164 -157.9522 -159.3240
-160.9388 -159.8183 -157.4919 -153.2537 -145.7180 -135.0765
-119.8337 -99.5155 -76.3509 -52.1273 -29.4845 -10.6270
4.6415 17.2700 27.0247 34.8484 40.2631 42.7380
42.8122 40.5400 38.5410 36.1706 34.4972 36.1816
40.9178 48.2820 55.8763 64.4629 74.0003 83.5377
92.2774 100.1312 109.9602 118.4193 126.2319 136.3938
146.4740 156.2572 164.7374 171.7733 177.7565 181.4336
182.3019 179.4639 173.6668 166.7914 159.5134 153.9584
150.1511 147.6377 147.7440 148.6794 151.0717 155.3173
158.9614 163.3005 168.1577 173.8548 179.8848 183.7664
185.9396 182.9649 178.4085 169.6532 155.8244 145.1004
129.3789 112.8212 97.0053 79.9826 67.7328 54.8741
41.9173 31.6206 24.3802 17.1545 10.5284 7.6042
5.6217 4.5920 4.9193 6.0591 6.4507 5.3934
2.5811 -2.0762 -8.3813 -15.1367 -21.4179 -27.5745
-31.9200 -36.4838 -44.3972 -53.9273 -63.1585 -71.9834
-79.4549 -85.3070 -90.2394 -94.4235 -98.4848 -103.2741
-108.7127 -114.0559 -118.8040 -121.9877 -122.8606 -121.1046
-117.8035 -113.9073 -108.9749 -103.9940 -98.1437 -91.0702
-83.6115 -74.4051 -65.5875 -57.6520 -50.3777 -45.8488
-42.7889 -42.0690 -43.9204 -47.6277 -53.0901 -59.6822
-68.1871 -77.1835 -85.8388 -93.4158 -101.3778 -110.2578
-117.9741 -127.7059 -138.9232 -152.4293 -166.8954 -180.8123
-192.0755 -198.4759 -201.7284 -196.9134 -191.5170 -174.2422
-152.9355 -142.2867 -119.1698 -94.8288 -71.6377 -49.8954
-39.3520 -25.0510 -14.7864 -15.8491 -14.3444 -10.3024
-7.7807 -3.8671 2.3857 10.9842 22.0071 35.8690
51.2282 67.6466 83.2626 96.7421 108.7902 119.4977
130.1850 140.8301 150.9718 158.0774 163.4316 166.5915
167.3911 168.9903 165.1959 159.3758 156.1719 153.4559
153.2936 154.0813 155.4338 156.3535 156.2279 156.7386
157.4053 157.7748 157.6978 154.9313 146.7317 133.7080
118.6201 103.4727 87.5577 72.1691 60.9527 54.3111
50.6955 49.7803 50.9513 53.3033 56.1377 58.1926
59.2123 58.2706 55.0401 51.2227 47.0991 42.8114
40.0935 39.7441 42.0347 46.9029 53.1979 60.8198
69.3109 76.7494 83.1361 88.8323 92.7157 94.7991
95.6500 95.2548 93.7299 90.4875 84.9884 77.2748
67.4962 56.9685 45.9502 33.9534 22.4262 13.0309
6.2159 1.8466 -0.4990 -1.5251 -1.9699 -2.6356
-3.4095 -3.1161 -1.7278 0.1190 1.9089 1.3798
-1.6407 -5.7349 -12.2399 -19.2841 -25.7066 -33.2844
-40.5899 -47.2426 -53.9089 -61.1081 -68.8868 -76.8626
-85.6462 -95.9998 -108.3899 -121.8510 -136.0540 -151.1208
-166.4782 -182.1226 -197.6653 -212.1837 -225.6375 -237.9644
-247.3725 -253.2732 -255.2795 -252.7560 -247.6953 -240.7318
-232.8092 -223.7055 -211.5052 -197.4260 -182.7398 -167.3484
-150.2120 -132.6337 -114.6033 -96.9892 -82.9210 -71.0050
-62.7036 -57.6236 -52.3382 -48.0119 -43.7416 -38.9183
-34.6929 -30.2006 -26.7767 -24.2284 -21.9470 -20.5669
-19.1897 -18.9787 -19.2447 -20.0709 -21.1015 -21.5279
-23.0950 -24.0423 -24.2550 -24.9996 -26.0568 -27.0499
-27.9981 -28.8353 -29.2103 -29.4772 -29.6193 -30.0182
-29.8513 -29.0774 -27.9898 -26.5648 -25.3994 -23.8185
-21.0905 -17.7179 -12.8974 -5.8037 -0.4843 3.8328
10.5450 17.4810 24.8773 33.5463 42.9884 53.3501
63.4414 72.7643 80.7602 86.2190 88.3656 86.0117
79.4646 69.3852 56.8310 43.2323 30.5038 21.0131
15.0895 14.7200 20.4327 31.7445 44.5729 52.0370
56.6457 58.1826 56.0900 55.6114 56.0029 56.5064
60.8005 69.0725 76.3010 81.8835 87.2781 92.4700
98.0121 101.5911 102.8418 103.0509 101.7525 98.2038
93.1595 89.3092 88.0199 90.4829 97.0603 104.7180
110.2115 112.6259 115.2934 120.2450 124.3953 126.2026
124.8730 121.3546 118.4652 117.8747 120.6540 126.2255
132.9754 140.2524 148.4988 155.3971 158.9073 157.3677
149.1856 127.4249 90.5379 58.8025 37.9184 19.7413
6.7643 -1.7277 -4.4750 -1.6691 3.4174 10.7660
19.1499 27.5832 33.3455 36.3697 36.4788 33.4684
26.7323 17.9156 10.7541 4.5453 0.1667 -3.5094
-5.4259 -5.7523 -4.9977 -4.2934 -3.2508 -5.7743
-13.4897 -14.4361 -17.9022 -26.7601 -23.1344 -16.5836
-20.5999 -21.9543 -39.6794 -59.7289 -51.5807 -56.4434
-64.6439 -64.7429 -72.1255 -78.9762 -88.2568 -94.2364
-98.1959 -102.8935 -107.4784 -112.1063 -113.4259 -111.4287
-104.9466 -93.4827 -79.2256 -63.9965 -47.1307 -31.7778
-22.6439 -19.6023 -21.5472 -26.5859 -32.4747 -37.8949
-42.2175 -44.9290 -46.3760 -47.7450 -47.5901 -46.9179
-47.2948 -48.3622 -51.0764 -53.7549 -55.9785 -55.8263
-52.0933 -49.5762 -49.0866 -49.9834 -51.7880 -52.3968
-51.3863 -48.0669 -42.4073 -36.3828 -31.0901 -26.6969
-23.8176 -21.8498 -19.8177 -17.3263 -14.7643 -13.2339
-12.7231 -12.7451 -13.5906 -15.6685 -17.7857 -19.9929
-21.7425 -22.2816 -24.0899 -28.6124 -39.8316 -56.7790
-73.8154 -87.0455 -93.0095 -99.5209 -111.8166 -121.9354
-124.8596 -123.2732 -116.8764 -108.4513 -103.5207 -98.5975
-91.4185 -83.3492 -76.7030 -68.6125 -58.4012 -48.6647
-36.5864 -22.6301 -7.6642 6.4397 17.2536 25.2771
31.1897 35.5756 38.1596 38.4173 36.6695 33.1410
28.3260 23.4807 19.4717 16.6731 15.0217 14.4055
15.5324 18.0495 21.9696 26.9304 30.9669 34.6458
36.7273 39.1976 41.7927 46.6462 56.0396 67.6164
88.0584 105.2012 124.6043 154.7452 176.0354 195.0516
214.3153 229.7333 240.7791 244.9559 244.8817 236.5721
221.1193 204.4542 189.0720 175.5174 166.0432 158.7414
150.8141 143.9937 138.0270 133.5998 132.1272 131.7448
130.4106 128.0943 124.8217 121.3922 116.8404 111.7484
105.3590 98.1497 92.0702 83.9312 77.5912 72.3351
66.3794 62.3594 58.4660 55.8388 53.3465 52.1838
51.9142 50.5305 49.6144 47.0286 45.2386 43.4533
38.6722 33.6765 26.9286 18.4411 9.3447 2.2684
-2.4081 -8.4601 -12.4288 -13.6905 -13.5356 -11.1716
-8.5390 -5.5038 -2.7364 -0.9254 0.9269 1.1736
0.6784 0.8205 0.4840 0.6041 0.9434 0.7105
0.5216 0.1081 0.3410 1.1287 1.0149 1.0819
0.3162 -1.2005 -3.0527 -6.3942 -9.5669 -12.7662
-15.5153 -17.8398 -19.7554 -20.7695 -21.8305 -23.0024
-25.6295 -29.2240 -34.2784 -41.8581 -50.8627 -61.1465
-72.0512 -83.0044 -95.6164 -110.4411 -128.1341 -147.8260
-165.9903 -183.1826 -196.4218 -205.4458 -212.6816 -215.8066
-219.7844 -225.0882 -226.7516 -226.1757 -222.4409 -215.9322
-207.7776 -198.0935 -188.0471 -176.9857 -164.2728 -149.4555
-134.4465 -116.8617 -97.2514 -71.8788 -46.7079 -23.9789
-0.3559 1.7678 4.2555 17.6983 19.7771 18.7088
16.4778 13.0548 7.1807 -0.1294 -6.6885 -14.1563
-20.0470 -25.0399 -29.1314 -29.5505 -27.2965 -23.6892
-18.5129 -14.9193 -11.5081 -8.1859 -7.2130 -7.5459
-8.1548 -8.0062 -9.0818 -9.6247 -8.7306 -8.1630
-4.8271 1.1919 6.9533 12.3982 18.4787 22.9663
26.7048 30.5011 32.7926 35.1364 36.3688 35.9213
34.0553 30.7707 27.3082 24.1135 21.5680 19.5277
17.4810 15.4197 13.4078 11.1356 8.5112 5.0506
0.8508 -3.6350 -8.9415 -14.9770 -21.5178 -28.5464
-35.5639 -42.8750 -48.9673 -53.8089 -59.7298 -64.5852
-68.7656 -73.8539 -77.3595 -76.9359 -73.3743 -68.1201
-59.6968 -49.1470 -37.1045 -25.3305 -13.6758 -1.6048
8.0115 18.9583 26.3380 28.8533 34.4753 39.5012
42.2649 44.6912 46.7086 46.6719 43.8678 39.1720
34.5954 31.0953 26.4783 22.7628 20.3181 18.1889
16.7209 15.4793 14.8154 14.3771 14.1258 14.3789
14.7567 14.6127 14.0635 13.5005 13.2960 14.0745
15.8378 18.1036 21.0160 23.7293 26.1611 28.4737
29.9280 30.6863 30.5644 30.0894 29.3219 28.9111
29.2834 30.2709 32.2131 34.2891 36.7145 40.8152
44.0677 43.1452 40.3521 35.3757 30.2379 27.5521
22.7839 15.3344 7.0844 -1.0271 -9.2909 -17.5289
-25.1444 -30.7984 -33.1330 -34.9092 -37.0173 -38.5771
-39.4097 -38.1599 -33.3577 -25.4892 -13.6043 2.3152
18.5897 32.1040 37.7589 37.9212 35.5041 31.6299
26.2445 14.8823 5.4696 -7.4010 -26.2768 -42.8474
-57.2384 -65.4609 -72.2437 -74.1565 -71.4808 -67.6451
-57.0119 -47.9632 -38.5239 -28.8930 -23.1096 -13.0954
-5.3488 0.3859 7.0679 11.7555 17.7460 24.0777
38.4192 54.0260 69.3798 95.5437 117.2723 131.1332
127.3617 141.6316 206.4120 246.8614 246.7569 243.5273
234.9078 211.7726 180.7515 153.7733 139.1430 131.6926
116.6983 101.6682 78.9759 54.5359 35.4849 17.2821
9.5557 5.4256 6.4031 10.7340 17.0712 24.8810
27.8520 32.5203 32.1278 24.1474 16.1505 8.3352
0.5372 -8.9919 -17.8214 -26.2191 -36.9999 -49.3634
-62.6797 -76.7800 -92.4189 -110.4172 -133.1462 -160.1290
-189.2282 -215.7085 -231.5345 -239.1252 -247.7557 -259.8395
-272.8890 -284.7674 -294.4094 -303.7478 -313.4283 -320.7457
-323.4920 -321.8011 -316.4451 -306.6280 -292.6763 -273.6134
-250.2911 -225.6035 -199.3836 -172.0487 -144.3351 -118.6434
-96.6562 -78.7560 -64.1808 -52.0135 -43.7461 -37.0962
-32.7662 -31.2505 -31.8988 -35.0220 -37.5024 -39.3648
-39.9782 -39.4170 -38.2882 -34.1197 -27.2011 -20.3532
-12.1280 -2.3420 6.6085 13.8379 20.5309 27.6714
32.6854 36.8200 41.2792 46.3427 54.3470 63.6671
71.9565 77.3180 76.8760 76.6349 78.9310 83.2325
91.5338 98.2479 106.0055 115.5961 121.4519 126.5961
131.0984 132.6343 132.1777 130.2621 128.4896 125.4902
120.5670 111.8585 101.1666 93.5347 86.1622 78.5339
70.7800 63.1838 56.0929 49.7474 44.4363 37.7984
31.1118 26.3197 23.3928 21.5295 20.2751 19.4828
18.2577 17.1858 16.5467 16.0533 15.7040 14.9750
14.3542 13.1942 11.2713 9.2503 7.4430 6.9396
7.9088 10.2672 14.0204 18.6667 23.0755 28.2573
34.3396 38.7337 41.9981 50.0721 61.4480 65.9815
65.3332 63.9339 62.4301 60.8575 55.2814 48.6077
41.3801 31.7831 22.5272 13.1181 4.9415 -2.1210
-10.2362 -19.8085 -28.6408 -35.8894 -42.1001 -46.7610
-52.7901 -59.5262 -63.6462 -65.7066 -65.6635 -61.8342
-58.2140 -55.0835 -51.2514 -49.2167 -47.4717 -46.1989
-44.7336 -43.6938 -43.1307 -42.1560 -41.5004 -40.5256
-39.8049 -38.8613 -38.2708 -38.2231 -37.6473 -37.2154
-37.0797 -36.8898 -35.9591 -34.6231 -33.0633 -31.0717
-28.8902 -25.5827 -22.1293 -18.8338 -15.5739 -12.6341
-9.3853 -6.5014 -3.6881 -0.4586 2.9627 6.1739
10.0078 12.9622 14.0635 15.2088 15.6783 16.0662
16.1964 16.5082 16.7833 15.0593 14.6027 16.0561
17.7186 18.8483 18.3724 18.8556 19.5864 18.9088
17.8249 16.2432 16.2872 18.2550 20.1990 21.3397
21.8862 22.3254 22.4648 22.4593 22.0503 21.6771
21.2966 20.4640 18.3256 13.0182 6.8039 2.1401
-2.0220 -7.1891 -11.1688 -13.2659 -15.3566 -19.0832
-24.0201 -28.4830 -33.3402 -36.4148 -39.5701 -40.8420
-38.6174 -34.9834 -30.8974 -26.9434 -20.6402 -18.3459
-16.3506 -10.9670 -7.7228 -5.0645 -2.5823 -0.2055
0.7674 1.1067 1.8137 2.1667 3.0819 2.7765
1.4377 0.3713 -1.2792 -2.8849 -5.0709 -7.7136
-9.8868 -12.1343 -15.2841 -19.4023 -24.3521 -30.8882
-38.1342 -45.9403 -54.7799 -63.9588 -75.1028 -89.1966
-94.1895 -105.6269 -124.7678 -120.1517 -121.2191 -136.8727
-142.4837 -143.0320 -137.5559 -128.3036 -118.8799 -107.3096
-95.4174 -86.5347 -80.3955 -71.0828 -66.1091 -66.8317
-61.2262 -59.6252 -63.8103 -67.0160 -72.7370 -78.5240
-83.5554 -84.8153 -80.4166 -75.4668 -71.1231 -65.0546
-58.3552 -52.4096 -46.7427 -40.6769 -33.7107 -26.4143
-18.9153 -12.0481 -6.9883 -3.6817 -2.1962 -2.3127
-3.7523 -5.8723 -8.0722 -9.9382 -10.7625 -10.1583
-8.3848 -5.8898 -3.0178 -0.1844 3.0058 5.8319
7.4192 9.1394 10.8927 11.9820 13.7316 15.8406
17.4774 21.0609 25.8640 30.1096 35.7169 40.7740
46.7481 55.0256 62.0193 70.4582 80.6522 90.8516
103.5920 118.4305 133.6375 151.3323 172.2787 191.9716
210.5091 228.9494 246.4800 262.1172 274.3780 287.7337
299.4443 306.7113 312.5332 314.9549 314.6202 313.5116
310.4452 303.9081 296.6485 288.0546 275.1638 259.7468
243.1239 226.2581 207.9627 188.6916 170.8198 154.2566
138.7689 124.0909 110.5995 97.4511 84.6355 72.6424
61.6700 53.1155 45.4451 38.3046 32.6680 27.8906
22.8711 17.7158 13.3006 8.4113 3.9438 0.5951
-2.3484 -5.1653 -8.2216 -10.2765 -11.7923 -13.1788
-13.4181 -14.7890 -16.6146 -16.9072 -18.3010 -19.9176
-21.5865 -24.0348 -27.0223 -30.3921 -33.2595 -37.1282
-41.3692 -45.8752 -51.2101 -56.1535 -61.7828 -68.7408
-75.0881 -82.5000 -91.7568 -100.8045 -111.0810 -122.1874
-132.9646 -143.9646 -154.2832 -163.9371 -172.8675 -181.0359
-189.6297 -197.7394 -206.3278 -215.8854 -224.6718 -233.3344
-241.6596 -249.5263 -256.1890 -261.4882 -266.2216 -269.9161
-272.6890 -273.9939 -274.8127 -274.4083 -272.5240 -269.1009
-265.4165 -260.2475 -252.7568 -245.1395 -233.4949 -222.7929
-201.8585 -181.2761 -173.7918 -152.1669 -129.5388 -113.4303
-95.2633 -79.3575 -63.7277 -51.2633 -40.0249 -30.7846
-24.6592 -18.3587 -13.3282 -10.1353 -6.9819 -3.8752
-1.1985 1.5882 5.5000 8.7827 11.8747 16.3266
19.9533 24.0219 28.6535 31.4273 34.4093 37.2831
38.3651 39.9212 42.2944 44.0128 45.8962 49.0864
51.2523 55.2246 61.6021 66.7775 73.0835 80.4991
89.0590 99.4941 110.6005 119.8481 126.6603 133.1048
139.2247 144.3707 152.3254 160.4526 167.2812 179.8401
190.2064 196.7536 206.7972 218.0640 226.8028 232.7906
240.5390 249.6583 255.7158 259.5240 264.3179 267.5099
269.6510 271.8628 271.9737 271.1035 267.7685 265.5797
263.4275 254.6182 243.5348 231.5518 216.9215 201.4990
184.6157 165.8379 147.1766 129.8193 113.6971 98.5295
84.4549 71.4357 59.4472 49.4147 41.1656 34.4689
28.0345 21.7781 17.6737 14.6119 11.1669 7.9602
5.9025 3.9283 2.3172 0.6144 -1.1178 -1.6772
