Archivo de aceleración parte de la Red Nacional de Acelerógrafos (RENAC) Ecuador
          
Evento: 201604162358
Fecha del evento UTM (aammdd):                  2016    4   16
Hora del registro UTM (hhmmss): 23   58 14.00
Estación:                                      AES2
Componente:                                        N
Frecuencia de muestreo (Hz):            1.000000e+02
Unidades: cm/s^2
_____________________________________________
0.0000 0.0000 0.0001 0.0001 0.0003 0.0004
0.0006 0.0008 0.0010 0.0013 0.0016 0.0020
0.0024 0.0028 0.0032 0.0038 0.0042 0.0049
0.0054 0.0059 0.0066 0.0073 0.0080 0.0089
0.0095 0.0100 0.0110 0.0118 0.0127 0.0136
0.0149 0.0157 0.0163 0.0178 0.0187 0.0201
0.0212 0.0222 0.0236 0.0250 0.0264 0.0279
0.0291 0.0298 0.0310 0.0331 0.0347 0.0354
0.0367 0.0382 0.0402 0.0419 0.0438 0.0463
0.0462 0.0476 0.0505 0.0521 0.0542 0.0547
0.0579 0.0599 0.0607 0.0645 0.0654 0.0670
0.0681 0.0692 0.0699 0.0722 0.0768 0.0782
0.0815 0.0826 0.0844 0.0909 0.0910 0.0931
0.0962 0.0956 0.0986 0.1018 0.1036 0.1063
0.1092 0.1118 0.1121 0.1147 0.1200 0.1195
0.1227 0.1258 0.1273 0.1358 0.1370 0.1384
0.1389 0.1366 0.1431 0.1485 0.1527 0.1545
0.1568 0.1588 0.1611 0.1656 0.1640 0.1697
0.1742 0.1745 0.1781 0.1818 0.1881 0.1916
0.1944 0.1983 0.1978 0.2033 0.2081 0.2058
0.2123 0.2140 0.2125 0.2171 0.2202 0.2243
0.2280 0.2350 0.2389 0.2398 0.2413 0.2490
0.2533 0.2464 0.2538 0.2585 0.2570 0.2657
0.2675 0.2749 0.2839 0.2823 0.2801 0.2799
0.2879 0.2940 0.2949 0.2953 0.2974 0.3087
0.3086 0.3089 0.3218 0.3168 0.3144 0.3257
0.3345 0.3379 0.3362 0.3405 0.3377 0.3401
0.3472 0.3520 0.3529 0.3552 0.3695 0.3638
0.3733 0.3746 0.3686 0.3812 0.3793 0.3836
0.3751 0.3843 0.3995 0.3869 0.3989 0.4072
0.3896 0.3961 0.4136 0.4076 0.4143 0.4239
0.4182 0.4309 0.4413 0.4397 0.4411 0.4418
0.4450 0.4438 0.4487 0.4569 0.4594 0.4612
0.4720 0.4784 0.4717 0.4741 0.4666 0.4682
0.4805 0.4761 0.4858 0.4921 0.4882 0.4932
0.4912 0.4906 0.5046 0.4969 0.4947 0.5102
0.5051 0.5223 0.5193 0.5082 0.5408 0.5407
0.5286 0.5328 0.5332 0.5418 0.5391 0.5394
0.5450 0.5476 0.5654 0.5572 0.5581 0.5746
0.5544 0.5631 0.5663 0.5568 0.5726 0.5661
0.5836 0.5755 0.5526 0.5937 0.5919 0.5704
0.5741 0.5861 0.5964 0.5844 0.5964 0.5992
0.5820 0.5898 0.5933 0.5893 0.6106 0.6099
0.5998 0.6110 0.6033 0.6188 0.6292 0.5946
0.6048 0.6203 0.5949 0.5973 0.6233 0.6362
0.6280 0.6260 0.6380 0.6385 0.6301 0.6350
0.6372 0.6394 0.6487 0.6499 0.6457 0.6514
0.6606 0.6491 0.6547 0.6603 0.6513 0.6486
0.6559 0.6705 0.6614 0.6622 0.6603 0.6428
0.6481 0.6561 0.6486 0.6510 0.6627 0.6532
0.6537 0.6579 0.6602 0.6607 0.6547 0.6745
0.6739 0.6557 0.6551 0.6683 0.6713 0.6687
0.6782 0.6653 0.6793 0.6794 0.6683 0.6767
0.6618 0.6804 0.6776 0.6554 0.6637 0.6879
0.6981 0.6861 0.6833 0.6703 0.6759 0.6806
0.6815 0.6787 0.6862 0.6945 0.6695 0.6871
0.6862 0.6714 0.6881 0.6779 0.6742 0.6659
0.6650 0.6622 0.6650 0.6854 0.6715 0.6715
0.6688 0.6651 0.6725 0.6632 0.6725 0.6651
0.6475 0.6642 0.6819 0.6578 0.6550 0.6801
0.6560 0.6662 0.6792 0.6644 0.6848 0.6644
0.6709 0.6876 0.6691 0.6821 0.6719 0.6719
0.6710 0.6691 0.6831 0.6692 0.6877 0.6924
0.6590 0.6739 0.6776 0.6730 0.6860 0.6730
0.6730 0.6628 0.6703 0.6823 0.6694 0.6703
0.6564 0.6518 0.6676 0.6620 0.6583 0.6704
0.6630 0.6788 0.6788 0.6640 0.6807 0.6612
0.6714 0.6816 0.6752 0.6835 0.6659 0.6734
0.6669 0.6706 0.6780 0.6604 0.6762 0.6614
0.6558 0.6688 0.6707 0.6828 0.6744 0.6912
0.6838 0.6485 0.6699 0.6922 0.6903 0.6848
0.6681 0.6801 0.6839 0.6616 0.6709 0.6793
0.6793 0.6756 0.6682 0.6663 0.6747 0.6822
0.6571 0.6673 0.6757 0.6534 0.6674 0.6609
0.6739 0.6832 0.6684 0.6675 0.6443 0.6591
0.6610 0.6601 0.6917 0.6685 0.6694 0.6796
0.6694 0.6704 0.6583 0.6658 0.6797 0.6760
0.6612 0.6658 0.6751 0.6844 0.6900 0.6854
0.6743 0.6641 0.6836 0.6762 0.6715 0.6678
0.6623 0.6799 0.6716 0.6679 0.6763 0.6781
0.6670 0.6596 0.6708 0.6708 0.6838 0.6866
0.6560 0.6578 0.6671 0.6736 0.6746 0.6755
0.6885 0.6691 0.6700 0.6932 0.6914 0.6765
0.6599 0.6673 0.6794 0.6859 0.6738 0.6757
0.6887 0.6507 0.6488 0.6823 0.6813 0.6776
0.6730 0.6721 0.6758 0.6675 0.6749 0.6759
0.6601 0.6731 0.6731 0.6694 0.6862 0.6797
0.6602 0.6899 0.7029 0.6640 0.6668 0.6733
0.6575 0.6622 0.6798 0.6678 0.6659 0.6715
0.6724 0.6771 0.6586 0.6716 0.6725 0.6530
0.6707 0.6790 0.6679 0.6577 0.6494 0.6633
0.6763 0.6652 0.6652 0.6801 0.6810 0.6653
0.6709 0.6746 0.6755 0.6690 0.6635 0.6626
0.6626 0.6737 0.6682 0.6608 0.6571 0.6673
0.6766 0.6720 0.6599 0.6692 0.6646 0.6498
0.6674 0.6609 0.6767 0.6804 0.6777 0.6638
0.6536 0.6851 0.6601 0.6657 0.6787 0.6713
0.6843 0.6750 0.6917 0.6880 0.6612 0.6732
0.6797 0.6677 0.6705 0.6603 0.6742 0.6882
0.6576 0.6539 0.6613 0.6725 0.6660 0.6632
0.6781 0.6744 0.6762 0.6809 0.6744 0.6633
0.6744 0.6800 0.6689 0.6615 0.6513 0.6578
0.6523 0.6588 0.6681 0.6607 0.6774 0.6681
0.6644 0.6718 0.6737 0.6923 0.6775 0.6719
0.6784 0.6701 0.6617 0.6534 0.6720 0.6813
0.6785 0.6711 0.6665 0.6888 0.6795 0.6609
0.6675 0.6740 0.6731 0.6666 0.6796 0.6796
0.6629 0.6713 0.6685 0.6657 0.6713 0.6778
0.6769 0.6732 0.6797 0.6770 0.6723 0.6761
0.6798 0.6677 0.6733 0.6743 0.6669 0.6613
0.6641 0.6901 0.6790 0.6744 0.6864 0.6725
0.6790 0.6920 0.6883 0.6754 0.6726 0.6884
0.6856 0.6791 0.6921 0.6922 0.6625 0.6551
0.6801 0.6764 0.6755 0.6867 0.6876 0.6951
0.6756 0.6608 0.6830 0.6756 0.6589 0.6655
0.6701 0.6738 0.6720 0.6822 0.6646 0.6591
0.6906 0.6721 0.6619 0.6767 0.6786 0.6573
0.6647 0.6787 0.6722 0.6787 0.6629 0.6834
0.6834 0.6509 0.6723 0.6853 0.6602 0.6575
0.6705 0.6658 0.6761 0.6724 0.6687 0.6770
0.6808 0.6817 0.6659 0.6678 0.6743 0.6697
0.6781 0.6697 0.6651 0.6744 0.6661 0.6726
0.6735 0.6652 0.6791 0.6819 0.6791 0.6847
0.6764 0.6727 0.6857 0.6681 0.6811 0.6913
0.6672 0.6876 0.6709 0.6765 0.6942 0.6617
0.6645 0.6775 0.6859 0.6877 0.6748 0.6739
0.6859 0.6767 0.6860 0.6897 0.6721 0.6832
0.6749 0.6740 0.6861 0.6721 0.6805 0.6889
0.6583 0.6657 0.6871 0.6732 0.6825 0.6815
0.6843 0.6964 0.6797 0.6788 0.6751 0.6659
0.6835 0.6974 0.6891 0.6761 0.6799 0.6854
0.6947 0.6947 0.6818 0.6994 0.7022 0.6855
0.6790 0.6837 0.6911 0.6874 0.6819 0.6838
0.6819 0.6754 0.6801 0.6727 0.6727 0.6727
0.6672 0.6848 0.6718 0.6774 0.6802 0.6644
0.7007 0.6867 0.6701 0.6914 0.6886 0.6868
0.6813 0.6989 0.6998 0.6813 0.6897 0.6878
0.6804 0.6795 0.6786 0.6786 0.6721 0.6703
0.6833 0.6833 0.6815 0.6926 0.6880 0.6852
0.6806 0.6685 0.6611 0.6593 0.6760 0.6881
0.6862 0.6844 0.6751 0.6826 0.6928 0.6835
0.6900 0.6799 0.6836 0.6827 0.6623 0.6790
0.6827 0.6939 0.6716 0.6707 0.6818 0.6605
0.6856 0.6800 0.6763 0.6745 0.6782 0.7024
0.6810 0.6773 0.6690 0.6904 0.6922 0.6505
0.6700 0.6904 0.6960 0.6812 0.6738 0.6784
0.6766 0.6803 0.6785 0.6757 0.6692 0.6831
0.6850 0.6776 0.6915 0.6906 0.6702 0.6702
0.6767 0.6786 0.6833 0.6796 0.6879 0.6750
0.6703 0.6871 0.6899 0.6862 0.6778 0.6704
0.6704 0.6844 0.6927 0.6844 0.6816 0.6881
0.6891 0.6789 0.6817 0.6938 0.6799 0.6697
0.6734 0.6734 0.6753 0.6799 0.6827 0.6735
0.6828 0.6874 0.6754 0.6745 0.6828 0.6893
0.6893 0.6801 0.6690 0.6736 0.6894 0.6838
0.6755 0.6959 0.6950 0.6793 0.6765 0.6914
0.6914 0.6784 0.6914 0.6747 0.6784 0.6822
0.6627 0.6868 0.6887 0.6683 0.6563 0.6618
0.6674 0.6786 0.6832 0.6665 0.6879 0.6777
0.6814 0.7037 0.6648 0.6759 0.6963 0.6704
0.6769 0.6880 0.6723 0.6686 0.6825 0.6760
0.6566 0.6872 0.6891 0.6687 0.6900 0.6780
0.6873 0.6873 0.6595 0.6855 0.6762 0.6781
0.7115 0.6753 0.6725 0.6828 0.6781 0.7023
0.6949 0.6912 0.6773 0.6745 0.6866 0.6810
0.6875 0.6820 0.6950 0.6690 0.6533 0.6922
0.6774 0.6793 0.6867 0.6821 0.6849 0.6784
0.6849 0.6747 0.6655 0.6813 0.6785 0.6618
0.6618 0.6711 0.6850 0.6767 0.6767 0.6795
0.6638 0.6842 0.6851 0.6777 0.6768 0.6722
0.6991 0.6982 0.6787 0.6806 0.6834 0.6686
0.6639 0.6844 0.6751 0.6844 0.6891 0.6714
0.7021 0.6882 0.6603 0.6780 0.6771 0.6622
0.6660 0.6799 0.6697 0.6734 0.6874 0.6874
0.6772 0.6772 0.6800 0.6726 0.6745 0.6763
0.6875 0.6801 0.6866 0.6857 0.6838 0.6931
0.6607 0.6625 0.6830 0.6839 0.6700 0.6793
0.6728 0.6626 0.6858 0.6812 0.6803 0.6775
0.6785 0.6646 0.6655 0.6878 0.6822 0.6953
0.6981 0.6916 0.6897 0.6897 0.6777 0.6666
0.6870 0.6787 0.6666 0.6935 0.6852 0.6676
0.6899 0.6788 0.6723 0.6927 0.6714 0.6649
0.6807 0.6751 0.6779 0.6872 0.6845 0.6780
0.6854 0.6938 0.6901 0.6836 0.6818 0.6753
0.6725 0.6957 0.6818 0.6698 0.6874 0.6921
0.7014 0.6828 0.6819 0.6996 0.6921 0.6875
0.6708 0.6783 0.6801 0.6709 0.6820 0.6755
0.6793 0.6821 0.6737 0.6719 0.6793 0.6979
0.6914 0.6794 0.6822 0.6803 0.6646 0.6627
0.6915 0.6813 0.6767 0.6878 0.6665 0.6832
0.6833 0.6758 0.6991 0.6972 0.6842 0.6778
0.6917 0.6936 0.6787 0.6778 0.6871 0.6816
0.6677 0.6705 0.6760 0.6751 0.6863 0.6937
0.6863 0.6807 0.6817 0.6882 0.6632 0.6854
0.6947 0.6706 0.6846 0.6837 0.6883 0.6707
0.6846 0.6884 0.6772 0.6902 0.6689 0.6968
0.6875 0.6792 0.7014 0.6848 0.6857 0.6709
0.6764 0.6792 0.6756 0.6923 0.6867 0.6886
0.6895 0.6895 0.6961 0.6951 0.6831 0.6748
0.6878 0.6887 0.6980 0.6924 0.6767 0.6934
0.6786 0.6823 0.6981 0.6693 0.6758 0.6926
0.6917 0.6898 0.6759 0.6833 0.6806 0.6787
0.6917 0.6825 0.6714 0.6751 0.6890 0.6844
0.6881 0.6918 0.6687 0.6909 0.6910 0.6678
0.6854 0.6762 0.6790 0.6901 0.6901 0.6855
0.6827 0.6939 0.6781 0.6818 0.6856 0.6791
0.6875 0.6921 0.6958 0.6727 0.6875 0.6885
0.6736 0.6866 0.6634 0.6718 0.6820 0.6746
0.6756 0.6812 0.6904 0.6663 0.6803 0.6942
0.6868 0.6961 0.6748 0.6813 0.6915 0.6813
0.6887 0.6860 0.6841 0.6906 0.6860 0.6749
0.6814 0.6749 0.6879 0.6981 0.6685 0.6731
0.6722 0.6667 0.6815 0.6936 0.6927 0.6890
0.6983 0.6797 0.6714 0.6946 0.6900 0.6863
0.6919 0.6808 0.6947 0.6836 0.6947 0.7207
0.6762 0.6911 0.7013 0.6799 0.7032 0.6828
0.6995 0.7060 0.6670 0.6847 0.6884 0.6977
0.6819 0.6717 0.7042 0.6848 0.6876 0.6904
0.6727 0.6885 0.6783 0.6728 0.6858 0.6700
0.6756 0.6951 0.6831 0.6877 0.6933 0.6840
0.6850 0.6739 0.6850 0.6989 0.6832 0.6860
0.6814 0.6777 0.6962 0.6907 0.6656 0.6759
0.6861 0.6657 0.6657 0.6852 0.6945 0.6834
0.6741 0.6751 0.6899 0.6955 0.6946 0.7011
0.6928 0.6900 0.6761 0.6780 0.6928 0.6808
0.6826 0.6854 0.6808 0.6929 0.6818 0.6827
0.7013 0.7013 0.6939 0.6754 0.6902 0.6902
0.6893 0.7060 0.6921 0.6884 0.7024 0.7005
0.6801 0.6885 0.7024 0.6950 0.6820 0.6988
0.7006 0.6728 0.6895 0.6765 0.6821 0.6877
0.6868 0.6961 0.6692 0.7035 0.7063 0.6794
0.7017 0.6841 0.6860 0.7027 0.6740 0.7074
0.7065 0.6759 0.6833 0.6805 0.6982 0.6731
0.6917 0.7075 0.6945 0.7103 0.6992 0.6983
0.6872 0.6964 0.6946 0.6863 0.6807 0.6622
0.6845 0.6817 0.6919 0.6984 0.6752 0.6845
0.6799 0.7050 0.7078 0.6855 0.7069 0.6911
0.6846 0.6986 0.6884 0.6977 0.7051 0.7051
0.7181 0.6940 0.6959 0.7080 0.6903 0.6950
0.6811 0.6941 0.6997 0.6904 0.7062 0.6932
0.7007 0.6970 0.6979 0.7072 0.6794 0.6989
0.6980 0.6943 0.6952 0.6730 0.7064 0.6934
0.6851 0.6981 0.6777 0.6879 0.6935 0.7000
0.6898 0.6935 0.7075 0.6796 0.6797 0.7010
0.7010 0.6955 0.6806 0.6844 0.6974 0.6881
0.6983 0.6816 0.6770 0.6965 0.6984 0.7086
0.6789 0.6725 0.6882 0.6920 0.6994 0.6697
0.6735 0.7013 0.6828 0.6707 0.6809 0.6828
0.6856 0.6884 0.6856 0.6829 0.6838 0.6810
0.7043 0.7006 0.6867 0.7052 0.6635 0.6783
0.6960 0.6737 0.6970 0.6784 0.6784 0.6849
0.6952 0.7044 0.6933 0.6896 0.6859 0.6999
0.6887 0.6934 0.7055 0.6879 0.6944 0.7083
0.6842 0.6842 0.6981 0.6926 0.6991 0.7056
0.7103 0.6917 0.6973 0.7057 0.7020 0.7131
0.6974 0.6872 0.7048 0.7011 0.6909 0.7114
0.7021 0.7049 0.7290 0.7003 0.6743 0.6985
0.7180 0.6957 0.6892 0.7078 0.7060 0.7041
0.7060 0.6967 0.6902 0.7005 0.7218 0.7107
0.7098 0.7033 0.6736 0.6885 0.6978 0.6894
0.6895 0.6858 0.6848 0.6988 0.6895 0.6691
0.6830 0.6979 0.7026 0.6887 0.6896 0.6859
0.6887 0.7045 0.6915 0.6980 0.6897 0.6925
0.6944 0.6832 0.7074 0.6888 0.6879 0.6926
0.6815 0.7010 0.6908 0.7010 0.7149 0.6973
0.7131 0.7224 0.7001 0.6909 0.6983 0.6993
0.6918 0.7039 0.7076 0.6835 0.6780 0.6734
0.6975 0.7059 0.6725 0.6994 0.7115 0.7059
0.7106 0.6967 0.7134 0.7125 0.6726 0.6670
0.6838 0.6819 0.6959 0.7033 0.6931 0.6913
0.6913 0.6876 0.6904 0.6848 0.6941 0.7108
0.6821 0.6923 0.7053 0.6877 0.7007 0.7063
0.6942 0.6933 0.7026 0.6924 0.6841 0.7027
0.6943 0.6878 0.7008 0.7009 0.7037 0.6972
0.6981 0.6851 0.6814 0.7074 0.6963 0.6908
0.7028 0.7038 0.7001 0.7010 0.6871 0.6844
0.7002 0.6927 0.6909 0.6918 0.6891 0.6863
0.6770 0.7040 0.7170 0.7031 0.7049 0.6920
0.7040 0.6994 0.6846 0.6892 0.6726 0.6976
0.6930 0.6856 0.7004 0.6736 0.6958 0.6940
0.6931 0.7033 0.7015 0.7098 0.6941 0.6997
0.6830 0.6793 0.6988 0.6876 0.6672 0.6747
0.6942 0.6840 0.6896 0.6924 0.6933 0.6859
0.6850 0.7054 0.7092 0.6841 0.6739 0.6990
0.6860 0.6860 0.7000 0.6944 0.6991 0.6787
0.6768 0.6917 0.6806 0.6778 0.6917 0.6880
0.6825 0.6936 0.6936 0.6918 0.6798 0.6965
0.7039 0.6779 0.6928 0.6780 0.6845 0.7068
0.6743 0.6669 0.6827 0.6938 0.6957 0.7096
0.6976 0.6920 0.6986 0.6865 0.6977 0.6930
0.6930 0.6893 0.6856 0.6866 0.6940 0.7015
0.6922 0.7006 0.6904 0.6895 0.6997 0.7006
0.7016 0.6951 0.7062 0.6951 0.6831 0.6812
0.6989 0.7174 0.6906 0.6934 0.6962 0.7119
0.7147 0.6888 0.7036 0.7092 0.7148 0.7102
0.7111 0.7102 0.6944 0.6963 0.6945 0.7065
0.7029 0.6917 0.7057 0.7122 0.7020 0.6807
0.6927 0.7234 0.7039 0.6733 0.6854 0.6937
0.6928 0.7077 0.7123 0.7003 0.6864 0.6929
0.7105 0.6883 0.6725 0.6874 0.6846 0.6893
0.6958 0.7079 0.7209 0.7116 0.7228 0.7135
0.6959 0.7117 0.7117 0.6950 0.6931 0.7071
0.7127 0.7136 0.6923 0.6802 0.7090 0.6979
0.7044 0.7100 0.6849 0.6998 0.7072 0.7063
0.7026 0.7054 0.7027 0.6999 0.7120 0.6990
0.6897 0.7055 0.7213 0.7065 0.6916 0.7047
0.7186 0.7195 0.7038 0.7001 0.6954 0.6806
0.6992 0.7066 0.6899 0.6937 0.6965 0.6983
0.7086 0.7011 0.6919 0.7067 0.7179 0.7142
0.6947 0.6799 0.7115 0.7189 0.6901 0.7004
0.7152 0.6958 0.6883 0.7078 0.7274 0.7199
0.7116 0.7079 0.6959 0.7079 0.7098 0.7098
0.7098 0.7126 0.7099 0.6960 0.6997 0.6978
0.7025 0.6895 0.7081 0.7239 0.6979 0.7156
0.7165 0.7072 0.7156 0.7091 0.7017 0.6990
0.6897 0.6943 0.7073 0.6990 0.7037 0.7000
0.7120 0.7260 0.6926 0.7028 0.7075 0.6834
0.7094 0.7010 0.6973 0.7029 0.6983 0.7243
0.6983 0.6946 0.6909 0.6854 0.6993 0.7021
0.7179 0.6901 0.7123 0.7216 0.6920 0.7077
0.7143 0.7143 0.6911 0.6948 0.6967 0.6837
0.7134 0.6986 0.6791 0.7033 0.6940 0.6959
0.7033 0.6885 0.6903 0.6996 0.7071 0.6960
0.7006 0.6997 0.6839 0.6979 0.6988 0.6951
0.7063 0.7156 0.6924 0.6868 0.7128 0.7045
0.6906 0.6924 0.7119 0.7147 0.7036 0.6971
0.6990 0.7027 0.6879 0.7018 0.7111 0.7009
0.6982 0.6982 0.7149 0.7251 0.7149 0.7159
0.7242 0.7159 0.7261 0.7159 0.6900 0.7002
0.6965 0.7076 0.7114 0.6891 0.7086 0.7105
0.6845 0.7040 0.7170 0.6836 0.6948 0.7180
0.6939 0.7088 0.7134 0.7051 0.7153 0.6903
0.7144 0.7320 0.7042 0.7191 0.7107 0.7080
0.7108 0.7024 0.7108 0.7080 0.7071 0.7164
0.7229 0.6942 0.7137 0.7322 0.6831 0.6970
0.6924 0.6878 0.7314 0.7082 0.6962 0.7175
0.7036 0.6999 0.7157 0.7111 0.7111 0.7260
0.7009 0.6917 0.7204 0.7075 0.7149 0.7168
0.7075 0.7075 0.7001 0.7140 0.6927 0.6983
0.7085 0.7039 0.7095 0.7058 0.7188 0.7077
0.6919 0.6984 0.7105 0.7040 0.7012 0.6966
0.6892 0.7004 0.7189 0.7143 0.6976 0.7051
0.7069 0.7023 0.6986 0.7079 0.7033 0.6940
0.7117 0.7042 0.6848 0.6894 0.7117 0.7219
0.7099 0.6951 0.6969 0.6895 0.6867 0.7007
0.7072 0.7091 0.7100 0.7091 0.7045 0.7128
0.7026 0.7008 0.7184 0.7120 0.6990 0.6962
0.7157 0.7204 0.7055 0.7102 0.7121 0.7074
0.7121 0.7038 0.6991 0.6964 0.7140 0.7131
0.7094 0.7271 0.7011 0.7067 0.6983 0.6854
0.7095 0.7058 0.6975 0.6928 0.6993 0.7170
0.7244 0.7170 0.7096 0.7050 0.7124 0.7264
0.7217 0.7115 0.7273 0.7357 0.7069 0.7218
0.7255 0.6949 0.7163 0.7200 0.7107 0.7024
0.6885 0.7089 0.7099 0.6960 0.7081 0.7136
0.7062 0.7146 0.7137 0.7146 0.7286 0.7063
0.6989 0.7175 0.7175 0.7073 0.7082 0.6980
0.6851 0.6981 0.6999 0.7092 0.7157 0.7130
0.6861 0.6852 0.7130 0.7019 0.7065 0.7140
0.7019 0.6992 0.6992 0.7001 0.7159 0.7122
0.7030 0.7067 0.6928 0.6844 0.6984 0.7132
0.7216 0.7142 0.6919 0.7049 0.7003 0.6873
0.7068 0.7031 0.6939 0.7013 0.7227 0.7125
0.7079 0.7190 0.7070 0.7051 0.7098 0.7089
0.7015 0.7080 0.6894 0.6876 0.7173 0.6960
0.7015 0.7145 0.6997 0.7081 0.6997 0.6979
0.7118 0.7007 0.7035 0.7082 0.7082 0.6980
0.6943 0.7064 0.6943 0.7101 0.7092 0.6972
0.7148 0.7000 0.6786 0.7028 0.7167 0.6815
0.7047 0.7019 0.6797 0.7261 0.7094 0.6871
0.7057 0.7066 0.6927 0.6890 0.7011 0.7021
0.7049 0.7086 0.7114 0.7003 0.6910 0.6957
0.7012 0.7003 0.6985 0.7124 0.7041 0.6948
0.7004 0.7032 0.7116 0.7004 0.6967 0.7023
0.7051 0.6996 0.6949 0.7089 0.7080 0.7043
0.7006 0.7164 0.7099 0.6969 0.7201 0.6997
0.6932 0.7053 0.7146 0.7035 0.6822 0.7072
0.6989 0.7035 0.7203 0.7101 0.7073 0.6999
0.6971 0.6999 0.7018 0.7065 0.7204 0.7130
0.7148 0.7167 0.7158 0.7158 0.7001 0.7056
0.7038 0.7196 0.7233 0.7029 0.7085 0.7057
0.7020 0.7076 0.7151 0.7225 0.7253 0.7216
0.7160 0.7040 0.7077 0.7161 0.7115 0.7105
0.7031 0.7152 0.7022 0.6985 0.7125 0.7079
0.7227 0.6958 0.6949 0.7200 0.7033 0.7042
0.7163 0.7098 0.6941 0.7089 0.7201 0.7006
0.7043 0.7127 0.7006 0.7174 0.7072 0.6988
0.7221 0.7017 0.7100 0.7295 0.7323 0.7175
0.6943 0.7055 0.7083 0.7101 0.7055 0.6953
0.6962 0.7028 0.7056 0.6944 0.7019 0.7158
0.7075 0.7121 0.6982 0.6843 0.7038 0.7113
0.7196 0.7215 0.7113 0.7076 0.7048 0.7058
0.7123 0.6956 0.6956 0.7114 0.7040 0.7059
0.7059 0.7022 0.6920 0.6966 0.7087 0.6995
0.7023 0.7041 0.6930 0.7014 0.7051 0.7135
0.7098 0.6894 0.7200 0.7182 0.7126 0.7173
0.6959 0.7062 0.6988 0.6941 0.6988 0.7071
0.7211 0.7118 0.7211 0.7100 0.6942 0.7230
0.7212 0.6952 0.7110 0.7092 0.7082 0.7194
0.6962 0.7241 0.7241 0.6990 0.7185 0.7018
0.6926 0.7093 0.6898 0.6871 0.7066 0.6899
0.6955 0.6964 0.6936 0.7113 0.7048 0.7076
0.7067 0.7160 0.7178 0.7179 0.7234 0.7012
0.7012 0.6966 0.6975 0.6947 0.6948 0.7087
0.6976 0.7106 0.6985 0.7004 0.7088 0.7032
0.7060 0.6903 0.7172 0.6959 0.6931 0.7237
0.7033 0.7089 0.7098 0.7052 0.7080 0.7034
0.6951 0.7025 0.7183 0.7137 0.7063 0.7100
0.6998 0.6970 0.7100 0.7073 0.7138 0.7129
0.7147 0.7277 0.7129 0.6934 0.7111 0.7129
0.7018 0.7000 0.6935 0.7019 0.6991 0.7075
0.7084 0.6926 0.7056 0.7084 0.7103 0.7196
0.7187 0.7094 0.6965 0.7039 0.7039 0.7113
0.7197 0.7095 0.7086 0.7068 0.7003 0.6929
0.7003 0.6994 0.7022 0.7031 0.6874 0.6995
0.7050 0.7069 0.7041 0.7042 0.7135 0.7088
0.7228 0.7154 0.7033 0.7302 0.7219 0.7071
0.7303 0.7145 0.7080 0.7275 0.7025 0.6997
0.7127 0.6998 0.6905 0.7137 0.7165 0.7165
0.7314 0.7063 0.6859 0.6989 0.7129 0.6934
0.7055 0.7148 0.7074 0.7176 0.6981 0.7046
0.7167 0.7037 0.6982 0.7038 0.7047 0.7038
0.7187 0.7233 0.7113 0.6974 0.7076 0.7057
0.6928 0.7058 0.7030 0.6937 0.7058 0.7133
0.7114 0.7096 0.7152 0.7142 0.6994 0.7041
0.7004 0.7069 0.6995 0.6930 0.7097 0.6939
0.7116 0.7172 0.6940 0.6949 0.6996 0.7070
0.7126 0.7154 0.7117 0.7164 0.7266 0.7090
0.7043 0.7164 0.7034 0.7100 0.7137 0.7193
0.7276 0.7017 0.7007 0.7017 0.6961 0.6980
0.6906 0.7222 0.7166 0.6962 0.7166 0.7269
0.7278 0.7037 0.7028 0.7167 0.7204 0.7214
0.7093 0.7038 0.7112 0.7177 0.7103 0.7187
0.7113 0.7113 0.7048 0.6937 0.7123 0.6965
0.6947 0.7077 0.7058 0.7021 0.7049 0.7077
0.7068 0.7087 0.7115 0.7124 0.7059 0.7041
0.7041 0.7125 0.7144 0.7172 0.7190 0.7218
0.7228 0.7181 0.7414 0.7256 0.7303 0.7275
0.7071 0.7210 0.6923 0.7118 0.7118 0.7025
0.7257 0.7081 0.7239 0.6998 0.6961 0.7323
0.7091 0.7240 0.7203 0.6906 0.7082 0.7083
0.7064 0.7092 0.7167 0.7065 0.6991 0.7186
0.6935 0.6972 0.7158 0.7019 0.6945 0.7010
0.7131 0.7075 0.7178 0.7011 0.7011 0.7122
0.6844 0.6946 0.6965 0.7049 0.7030 0.6966
0.7207 0.6910 0.7003 0.7272 0.7180 0.7273
0.7096 0.7097 0.7069 0.6939 0.7153 0.6977
0.6884 0.7209 0.7320 0.7126 0.7089 0.7089
0.7080 0.7071 0.6904 0.7145 0.7238 0.7118
0.7099 0.6932 0.7081 0.7322 0.7155 0.7007
0.7109 0.7007 0.7035 0.7017 0.7119 0.7119
0.6887 0.7185 0.7185 0.7129 0.7231 0.7111
0.7120 0.7167 0.7065 0.6991 0.7093 0.7047
0.7131 0.7196 0.6973 0.7094 0.7150 0.7113
0.7057 0.6937 0.7030 0.7076 0.7132 0.7243
0.7114 0.6975 0.7040 0.7096 0.7198 0.6985
0.7059 0.7245 0.7115 0.7189 0.7060 0.7162
0.7255 0.7236 0.7134 0.6949 0.7042 0.7079
0.7079 0.7117 0.7209 0.7070 0.7080 0.7052
0.6969 0.7108 0.7127 0.7192 0.7109 0.7155
0.7146 0.7109 0.7165 0.7109 0.7035 0.6943
0.7230 0.7249 0.7082 0.7110 0.7203 0.7203
0.7138 0.7352 0.7185 0.7000 0.6953 0.6824
0.7093 0.7130 0.6954 0.7056 0.7056 0.7057
0.6973 0.7020 0.7280 0.7187 0.7002 0.7067
