Archivo de aceleración parte de la Red Nacional de Acelerógrafos (RENAC) Ecuador
          
Evento: 201604162358
Fecha del evento UTM (aammdd):                  2016    4   16
Hora del registro UTM (hhmmss): 23   58 14.00
Estación:                                      AES2
Componente:                                        E
Frecuencia de muestreo (Hz):            1.000000e+02
Unidades: cm/s^2
_____________________________________________
0.0000 0.0000 0.0000 0.0001 0.0001 0.0001
0.0002 0.0003 0.0003 0.0004 0.0005 0.0006
0.0008 0.0009 0.0010 0.0012 0.0013 0.0016
0.0018 0.0019 0.0021 0.0024 0.0026 0.0028
0.0031 0.0030 0.0037 0.0039 0.0040 0.0048
0.0049 0.0051 0.0054 0.0059 0.0060 0.0064
0.0070 0.0072 0.0078 0.0079 0.0086 0.0093
0.0093 0.0101 0.0103 0.0111 0.0117 0.0114
0.0126 0.0133 0.0132 0.0144 0.0150 0.0155
0.0159 0.0162 0.0169 0.0168 0.0174 0.0181
0.0179 0.0190 0.0215 0.0223 0.0217 0.0220
0.0228 0.0238 0.0253 0.0254 0.0249 0.0273
0.0266 0.0280 0.0297 0.0270 0.0285 0.0300
0.0307 0.0330 0.0343 0.0344 0.0338 0.0355
0.0378 0.0359 0.0357 0.0394 0.0370 0.0363
0.0426 0.0418 0.0400 0.0444 0.0440 0.0453
0.0469 0.0478 0.0501 0.0482 0.0508 0.0517
0.0499 0.0532 0.0564 0.0544 0.0546 0.0558
0.0568 0.0606 0.0584 0.0581 0.0621 0.0624
0.0626 0.0651 0.0656 0.0661 0.0696 0.0743
0.0760 0.0721 0.0726 0.0751 0.0741 0.0779
0.0777 0.0740 0.0783 0.0797 0.0844 0.0855
0.0822 0.0870 0.0847 0.0843 0.0861 0.0890
0.0904 0.0919 0.0949 0.0918 0.0991 0.0987
0.0935 0.0994 0.1005 0.0988 0.1019 0.1064
0.1042 0.1078 0.1056 0.1080 0.1109 0.1041
0.1083 0.1130 0.1150 0.1111 0.1145 0.1203
0.1191 0.1179 0.1209 0.1235 0.1217 0.1213
0.1204 0.1296 0.1277 0.1247 0.1289 0.1290
0.1364 0.1328 0.1334 0.1394 0.1356 0.1323
0.1317 0.1423 0.1428 0.1405 0.1433 0.1416
0.1467 0.1484 0.1477 0.1512 0.1505 0.1449
0.1436 0.1501 0.1536 0.1596 0.1563 0.1530
0.1572 0.1518 0.1535 0.1551 0.1613 0.1656
0.1581 0.1637 0.1627 0.1690 0.1721 0.1649
0.1768 0.1689 0.1699 0.1799 0.1655 0.1742
0.1772 0.1683 0.1692 0.1779 0.1724 0.1660
0.1880 0.1823 0.1781 0.1841 0.1732 0.1770
0.1860 0.1884 0.1817 0.1810 0.1887 0.1857
0.1873 0.2004 0.1881 0.1881 0.1982 0.1873
0.1951 0.2006 0.2014 0.1910 0.1870 0.1949
0.1908 0.1971 0.1881 0.1944 0.2033 0.2007
0.1997 0.1946 0.2018 0.2033 0.2039 0.2062
0.2093 0.2192 0.2131 0.2002 0.2016 0.2038
0.2172 0.2160 0.1995 0.2068 0.1970 0.1984
0.2101 0.2054 0.1997 0.2002 0.2224 0.2141
0.2032 0.2080 0.2084 0.2194 0.2171 0.2184
0.2232 0.2156 0.2133 0.2296 0.2336 0.2205
0.2307 0.2372 0.2214 0.2199 0.2265 0.2241
0.2270 0.2183 0.2158 0.2187 0.2225 0.2309
0.2274 0.2258 0.2251 0.2288 0.2272 0.2273
0.2220 0.2148 0.2331 0.2368 0.2178 0.2151
0.2206 0.2243 0.2216 0.2207 0.2371 0.2271
0.2189 0.2271 0.2253 0.2235 0.2199 0.2235
0.2299 0.2281 0.2272 0.2281 0.2281 0.2254
0.2226 0.2327 0.2236 0.2190 0.2290 0.2199
0.2318 0.2290 0.2190 0.2318 0.2291 0.2245
0.2254 0.2218 0.2254 0.2327 0.2236 0.2318
0.2373 0.2200 0.2328 0.2446 0.2355 0.2328
0.2237 0.2282 0.2346 0.2346 0.2319 0.2255
0.2374 0.2301 0.2237 0.2401 0.2447 0.2356
0.2255 0.2392 0.2410 0.2319 0.2347 0.2347
0.2338 0.2219 0.2283 0.2338 0.2247 0.2338
0.2311 0.2229 0.2247 0.2238 0.2302 0.2347
0.2329 0.2220 0.2302 0.2448 0.2184 0.2338
0.2430 0.2220 0.2266 0.2357 0.2494 0.2357
0.2375 0.2339 0.2284 0.2403 0.2321 0.2321
0.2148 0.2239 0.2248 0.2075 0.2203 0.2248
0.2348 0.2358 0.2312 0.2267 0.2267 0.2303
0.2276 0.2321 0.2267 0.2203 0.2212 0.2249
0.2285 0.2222 0.2249 0.2185 0.2121 0.2322
0.2377 0.2331 0.2267 0.2213 0.2286 0.2249
0.2213 0.2231 0.2313 0.2423 0.2277 0.2268
0.2332 0.2222 0.2323 0.2323 0.2250 0.2286
0.2159 0.2241 0.2323 0.2214 0.2259 0.2278
0.2287 0.2360 0.2269 0.2232 0.2414 0.2342
0.2232 0.2351 0.2278 0.2196 0.2269 0.2342
0.2214 0.2196 0.2278 0.2114 0.2269 0.2333
0.2178 0.2342 0.2297 0.2242 0.2415 0.2361
0.2297 0.2434 0.2333 0.2270 0.2370 0.2261
0.2179 0.2151 0.2288 0.2352 0.2306 0.2370
0.2307 0.2288 0.2279 0.2270 0.2298 0.2252
0.2352 0.2371 0.2307 0.2398 0.2398 0.2252
0.2271 0.2380 0.2307 0.2271 0.2234 0.2262
0.2362 0.2280 0.2335 0.2362 0.2207 0.2280
0.2299 0.2226 0.2344 0.2399 0.2290 0.2244
0.2417 0.2344 0.2235 0.2427 0.2317 0.2226
0.2363 0.2336 0.2308 0.2418 0.2363 0.2318
0.2299 0.2391 0.2509 0.2263 0.2363 0.2327
0.2327 0.2491 0.2209 0.2245 0.2291 0.2236
0.2245 0.2245 0.2373 0.2400 0.2282 0.2391
0.2401 0.2264 0.2300 0.2255 0.2392 0.2401
0.2328 0.2383 0.2282 0.2292 0.2383 0.2328
0.2310 0.2456 0.2410 0.2319 0.2374 0.2347
0.2338 0.2502 0.2474 0.2356 0.2456 0.2338
0.2356 0.2365 0.2274 0.2356 0.2374 0.2329
0.2302 0.2420 0.2329 0.2338 0.2366 0.2284
0.2375 0.2311 0.2311 0.2339 0.2302 0.2293
0.2266 0.2366 0.2375 0.2220 0.2312 0.2312
0.2366 0.2530 0.2366 0.2330 0.2330 0.2367
0.2394 0.2276 0.2339 0.2385 0.2358 0.2321
0.2212 0.2294 0.2394 0.2312 0.2331 0.2413
0.2495 0.2431 0.2221 0.2267 0.2294 0.2231
0.2304 0.2249 0.2267 0.2395 0.2277 0.2313
0.2432 0.2340 0.2286 0.2249 0.2313 0.2268
0.2268 0.2432 0.2277 0.2323 0.2441 0.2204
0.2414 0.2514 0.2286 0.2441 0.2423 0.2323
0.2323 0.2369 0.2432 0.2305 0.2378 0.2423
0.2260 0.2287 0.2369 0.2296 0.2442 0.2415
0.2305 0.2305 0.2223 0.2378 0.2333 0.2278
0.2333 0.2233 0.2233 0.2297 0.2279 0.2242
0.2324 0.2424 0.2333 0.2270 0.2343 0.2315
0.2315 0.2252 0.2270 0.2379 0.2352 0.2470
0.2297 0.2143 0.2316 0.2307 0.2316 0.2371
0.2225 0.2280 0.2480 0.2398 0.2380 0.2389
0.2407 0.2344 0.2234 0.2371 0.2362 0.2316
0.2289 0.2271 0.2317 0.2280 0.2344 0.2417
0.2271 0.2335 0.2499 0.2435 0.2335 0.2226
0.2445 0.2518 0.2244 0.2263 0.2390 0.2308
0.2336 0.2554 0.2308 0.2281 0.2436 0.2372
0.2418 0.2318 0.2318 0.2281 0.2300 0.2363
0.2345 0.2436 0.2354 0.2464 0.2482 0.2263
0.2345 0.2409 0.2437 0.2337 0.2273 0.2455
0.2373 0.2264 0.2218 0.2264 0.2392 0.2364
0.2364 0.2337 0.2346 0.2255 0.2310 0.2346
0.2365 0.2447 0.2319 0.2428 0.2356 0.2283
0.2465 0.2374 0.2265 0.2338 0.2365 0.2320
0.2347 0.2283 0.2256 0.2256 0.2302 0.2302
0.2283 0.2384 0.2329 0.2284 0.2220 0.2311
0.2357 0.2284 0.2411 0.2375 0.2311 0.2348
0.2339 0.2257 0.2266 0.2357 0.2339 0.2503
0.2567 0.2385 0.2348 0.2412 0.2321 0.2230
0.2266 0.2212 0.2248 0.2330 0.2276 0.2267
0.2230 0.2267 0.2239 0.2139 0.2285 0.2221
0.2240 0.2322 0.2212 0.2240 0.2194 0.2240
0.2258 0.2203 0.2267 0.2358 0.2213 0.2195
0.2368 0.2185 0.2186 0.2313 0.2268 0.2286
0.2268 0.2277 0.2277 0.2222 0.2204 0.2286
0.2386 0.2432 0.2295 0.2213 0.2341 0.2423
0.2332 0.2332 0.2369 0.2214 0.2177 0.2250
0.2360 0.2305 0.2214 0.2269 0.2260 0.2278
0.2333 0.2232 0.2233 0.2315 0.2324 0.2324
0.2205 0.2315 0.2406 0.2315 0.2260 0.2269
0.2288 0.2388 0.2479 0.2361 0.2370 0.2315
0.2397 0.2397 0.2197 0.2288 0.2288 0.2243
0.2297 0.2306 0.2288 0.2325 0.2225 0.2261
0.2370 0.2261 0.2289 0.2316 0.2352 0.2371
0.2298 0.2225 0.2371 0.2325 0.2189 0.2280
0.2207 0.2316 0.2289 0.2280 0.2380 0.2235
0.2262 0.2371 0.2280 0.2271 0.2353 0.2262
0.2208 0.2180 0.2217 0.2171 0.2262 0.2363
0.2299 0.2308 0.2235 0.2326 0.2381 0.2308
0.2254 0.2318 0.2381 0.2299 0.2418 0.2482
0.2354 0.2263 0.2309 0.2354 0.2327 0.2272
0.2318 0.2291 0.2154 0.2318 0.2236 0.2227
0.2337 0.2191 0.2246 0.2300 0.2428 0.2337
0.2282 0.2328 0.2246 0.2364 0.2310 0.2392
0.2456 0.2355 0.2346 0.2319 0.2246 0.2173
0.2201 0.2246 0.2201 0.2283 0.2420 0.2338
0.2274 0.2238 0.2247 0.2402 0.2320 0.2265
0.2210 0.2210 0.2393 0.2283 0.2256 0.2302
0.2247 0.2293 0.2329 0.2393 0.2293 0.2302
0.2357 0.2266 0.2293 0.2248 0.2293 0.2311
0.2293 0.2321 0.2221 0.2321 0.2266 0.2266
0.2430 0.2212 0.2257 0.2385 0.2321 0.2294
0.2303 0.2312 0.2166 0.2321 0.2367 0.2221
0.2239 0.2185 0.2303 0.2267 0.2285 0.2358
0.2212 0.2231 0.2203 0.2194 0.2331 0.2258
0.2258 0.2413 0.2295 0.2186 0.2186 0.2331
0.2350 0.2277 0.2277 0.2359 0.2359 0.2159
0.2304 0.2259 0.2277 0.2377 0.2377 0.2414
0.2286 0.2405 0.2387 0.2223 0.2168 0.2232
0.2332 0.2314 0.2341 0.2396 0.2369 0.2305
0.2323 0.2333 0.2287 0.2260 0.2315 0.2315
0.2315 0.2260 0.2187 0.2260 0.2278 0.2288
0.2288 0.2397 0.2461 0.2315 0.2352 0.2406
0.2270 0.2261 0.2279 0.2179 0.2215 0.2306
0.2288 0.2279 0.2334 0.2379 0.2480 0.2416
0.2307 0.2334 0.2307 0.2398 0.2343 0.2207
0.2298 0.2189 0.2189 0.2353 0.2325 0.2362
0.2243 0.2262 0.2435 0.2307 0.2307 0.2362
0.2362 0.2399 0.2317 0.2371 0.2371 0.2381
0.2417 0.2335 0.2417 0.2335 0.2253 0.2436
0.2299 0.2253 0.2335 0.2144 0.2235 0.2409
0.2299 0.2199 0.2418 0.2454 0.2236 0.2236
0.2290 0.2409 0.2418 0.2418 0.2491 0.2336
0.2200 0.2409 0.2391 0.2236 0.2346 0.2245
0.2309 0.2327 0.2300 0.2282 0.2173 0.2337
0.2391 0.2337 0.2291 0.2291 0.2264 0.2282
0.2437 0.2364 0.2337 0.2346 0.2173 0.2228
0.2374 0.2210 0.2210 0.2356 0.2347 0.2392
0.2365 0.2338 0.2183 0.2256 0.2374 0.2292
0.2338 0.2302 0.2384 0.2220 0.2129 0.2347
0.2138 0.2211 0.2429 0.2265 0.2220 0.2174
0.2202 0.2348 0.2393 0.2248 0.2211 0.2384
0.2293 0.2321 0.2266 0.2175 0.2385 0.2330
0.2330 0.2330 0.2303 0.2312 0.2111 0.2203
0.2321 0.2294 0.2367 0.2321 0.2376 0.2221
0.2157 0.2312 0.2212 0.2303 0.2294 0.2231
0.2349 0.2367 0.2413 0.2331 0.2404 0.2404
0.2286 0.2295 0.2304 0.2404 0.2386 0.2331
0.2249 0.2304 0.2441 0.2432 0.2377 0.2295
0.2395 0.2414 0.2286 0.2277 0.2323 0.2286
0.2177 0.2296 0.2378 0.2250 0.2305 0.2341
0.2259 0.2241 0.2287 0.2296 0.2223 0.2296
0.2351 0.2323 0.2287 0.2269 0.2415 0.2433
0.2387 0.2397 0.2296 0.2324 0.2315 0.2224
0.2442 0.2406 0.2233 0.2515 0.2424 0.2215
0.2370 0.2279 0.2242 0.2333 0.2361 0.2443
0.2352 0.2315 0.2343 0.2352 0.2325 0.2288
0.2389 0.2234 0.2243 0.2370 0.2279 0.2361
0.2352 0.2280 0.2207 0.2289 0.2343 0.2207
0.2252 0.2325 0.2325 0.2207 0.2389 0.2408
0.2198 0.2426 0.2344 0.2326 0.2554 0.2435
0.2435 0.2362 0.2308 0.2390 0.2317 0.2426
0.2381 0.2354 0.2381 0.2335 0.2463 0.2381
0.2363 0.2472 0.2418 0.2381 0.2381 0.2381
0.2445 0.2454 0.2400 0.2436 0.2373 0.2418
0.2400 0.2227 0.2382 0.2446 0.2318 0.2391
0.2437 0.2355 0.2327 0.2400 0.2428 0.2264
0.2410 0.2619 0.2492 0.2464 0.2364 0.2383
0.2483 0.2392 0.2474 0.2519 0.2328 0.2328
0.2392 0.2319 0.2337 0.2374 0.2356 0.2246
0.2256 0.2347 0.2338 0.2338 0.2411 0.2320
0.2320 0.2475 0.2420 0.2365 0.2274 0.2311
0.2447 0.2420 0.2311 0.2293 0.2338 0.2429
0.2430 0.2284 0.2293 0.2329 0.2329 0.2421
0.2430 0.2302 0.2275 0.2257 0.2302 0.2375
0.2239 0.2321 0.2494 0.2467 0.2367 0.2321
0.2403 0.2430 0.2403 0.2349 0.2376 0.2412
0.2412 0.2431 0.2367 0.2413 0.2404 0.2376
0.2349 0.2294 0.2404 0.2340 0.2313 0.2367
0.2276 0.2431 0.2404 0.2194 0.2204 0.2204
0.2249 0.2340 0.2249 0.2268 0.2459 0.2377
0.2286 0.2323 0.2277 0.2313 0.2314 0.2368
0.2441 0.2387 0.2387 0.2314 0.2232 0.2268
0.2332 0.2296 0.2378 0.2414 0.2296 0.2378
0.2351 0.2278 0.2323 0.2260 0.2369 0.2342
0.2214 0.2315 0.2287 0.2378 0.2306 0.2260
0.2415 0.2242 0.2315 0.2342 0.2242 0.2324
0.2169 0.2333 0.2342 0.2151 0.2343 0.2261
0.2215 0.2388 0.2352 0.2261 0.2270 0.2234
0.2179 0.2325 0.2389 0.2234 0.2234 0.2316
0.2289 0.2389 0.2453 0.2298 0.2243 0.2289
0.2207 0.2225 0.2325 0.2262 0.2380 0.2389
0.2216 0.2280 0.2371 0.2353 0.2262 0.2235
0.2289 0.2271 0.2308 0.2362 0.2280 0.2262
0.2217 0.2253 0.2417 0.2253 0.2263 0.2436
0.2308 0.2326 0.2345 0.2208 0.2281 0.2327
0.2281 0.2318 0.2427 0.2445 0.2272 0.2236
0.2263 0.2127 0.2227 0.2300 0.2172 0.2300
0.2309 0.2254 0.2373 0.2291 0.2282 0.2255
0.2255 0.2419 0.2364 0.2309 0.2246 0.2191
0.2255 0.2355 0.2510 0.2446 0.2292 0.2337
0.2246 0.2292 0.2346 0.2201 0.2265 0.2310
0.2383 0.2283 0.2356 0.2438 0.2329 0.2402
0.2265 0.2256 0.2374 0.2320 0.2374 0.2429
0.2311 0.2302 0.2411 0.2311 0.2247 0.2320
0.2302 0.2311 0.2384 0.2338 0.2329 0.2320
0.2320 0.2284 0.2202 0.2284 0.2257 0.2202
0.2202 0.2193 0.2202 0.2230 0.2385 0.2366
0.2294 0.2348 0.2294 0.2157 0.2276 0.2376
0.2358 0.2330 0.2358 0.2403 0.2258 0.2267
0.2194 0.2258 0.2404 0.2294 0.2304 0.2222
0.2349 0.2377 0.2258 0.2313 0.2377 0.2359
0.2277 0.2386 0.2404 0.2377 0.2450 0.2295
0.2186 0.2304 0.2295 0.2359 0.2350 0.2314
0.2414 0.2295 0.2232 0.2195 0.2250 0.2332
0.2250 0.2332 0.2277 0.2287 0.2296 0.2205
0.2351 0.2314 0.2296 0.2296 0.2260 0.2360
0.2305 0.2287 0.2278 0.2315 0.2315 0.2278
0.2278 0.2315 0.2433 0.2306 0.2278 0.2360
0.2297 0.2306 0.2279 0.2315 0.2397 0.2370
0.2297 0.2334 0.2306 0.2279 0.2352 0.2379
0.2334 0.2270 0.2288 0.2307 0.2361 0.2316
0.2307 0.2380 0.2380 0.2252 0.2252 0.2334
0.2225 0.2398 0.2307 0.2407 0.2444 0.2243
0.2444 0.2234 0.2380 0.2444 0.2280 0.2390
0.2371 0.2344 0.2326 0.2390 0.2253 0.2262
0.2335 0.2244 0.2235 0.2253 0.2299 0.2290
0.2363 0.2390 0.2427 0.2408 0.2299 0.2354
0.2336 0.2318 0.2318 0.2299 0.2309 0.2300
0.2336 0.2300 0.2318 0.2373 0.2236 0.2272
0.2391 0.2409 0.2446 0.2364 0.2327 0.2318
0.2318 0.2337 0.2282 0.2355 0.2364 0.2246
0.2328 0.2373 0.2264 0.2373 0.2474 0.2364
0.2337 0.2292 0.2219 0.2319 0.2328 0.2301
0.2356 0.2410 0.2401 0.2192 0.2292 0.2365
0.2347 0.2292 0.2192 0.2365 0.2347 0.2347
0.2338 0.2365 0.2320 0.2220 0.2265 0.2356
0.2329 0.2083 0.2275 0.2238 0.2138 0.2284
0.2238 0.2393 0.2293 0.2238 0.2393 0.2248
0.2211 0.2302 0.2157 0.2211 0.2293 0.2239
0.2366 0.2248 0.2239 0.2412 0.2285 0.2330
0.2330 0.2166 0.2203 0.2294 0.2403 0.2321
0.2276 0.2212 0.2221 0.2267 0.2285 0.2385
0.2349 0.2376 0.2322 0.2440 0.2367 0.2194
0.2358 0.2267 0.2277 0.2359 0.2249 0.2331
0.2432 0.2377 0.2304 0.2286 0.2323 0.2414
0.2350 0.2295 0.2332 0.2232 0.2250 0.2268
0.2268 0.2314 0.2223 0.2268 0.2332 0.2177
0.2223 0.2278 0.2123 0.2132 0.2314 0.2287
0.2196 0.2323 0.2314 0.2360 0.2305 0.2196
0.2324 0.2260 0.2369 0.2342 0.2169 0.2297
0.2351 0.2361 0.2306 0.2333 0.2288 0.2279
0.2370 0.2206 0.2233 0.2233 0.2188 0.2352
0.2343 0.2316 0.2379 0.2398 0.2361 0.2379
0.2425 0.2361 0.2325 0.2416 0.2453 0.2371
0.2316 0.2280 0.2252 0.2344 0.2407 0.2380
0.2362 0.2371 0.2353 0.2307 0.2307 0.2344
0.2408 0.2390 0.2362 0.2317 0.2280 0.2317
0.2399 0.2426 0.2399 0.2417 0.2290 0.2308
0.2408 0.2390 0.2317 0.2308 0.2272 0.2281
0.2336 0.2317 0.2354 0.2390 0.2400 0.2345
0.2354 0.2254 0.2245 0.2354 0.2309 0.2354
0.2373 0.2327 0.2209 0.2373 0.2437 0.2245
0.2255 0.2245 0.2373 0.2382 0.2328 0.2391
0.2337 0.2246 0.2328 0.2428 0.2383 0.2319
0.2383 0.2428 0.2283 0.2365 0.2292 0.2274
0.2456 0.2401 0.2447 0.2356 0.2274 0.2319
0.2329 0.2447 0.2374 0.2283 0.2392 0.2347
0.2383 0.2502 0.2511 0.2511 0.2429 0.2429
0.2411 0.2402 0.2457 0.2484 0.2439 0.2338
0.2430 0.2366 0.2366 0.2494 0.2375 0.2485
0.2466 0.2393 0.2430 0.2366 0.2485 0.2385
0.2366 0.2549 0.2412 0.2394 0.2476 0.2367
0.2348 0.2476 0.2494 0.2449 0.2485 0.2367
0.2321 0.2331 0.2276 0.2367 0.2312 0.2358
0.2413 0.2222 0.2258 0.2340 0.2459 0.2413
0.2368 0.2495 0.2377 0.2395 0.2258 0.2167
0.2432 0.2413 0.2313 0.2386 0.2459 0.2414
0.2423 0.2405 0.2350 0.2332 0.2286 0.2305
0.2350 0.2359 0.2323 0.2369 0.2268 0.2259
0.2250 0.2214 0.2433 0.2405 0.2451 0.2387
0.2351 0.2424 0.2251 0.2305 0.2333 0.2260
0.2278 0.2433 0.2342 0.2278 0.2424 0.2278
0.2306 0.2324 0.2224 0.2215 0.2315 0.2388
0.2324 0.2370 0.2361 0.2434 0.2443 0.2370
0.2334 0.2334 0.2352 0.2316 0.2425 0.2425
0.2297 0.2234 0.2361 0.2389 0.2334 0.2371
0.2243 0.2252 0.2343 0.2380 0.2407 0.2362
0.2416 0.2353 0.2316 0.2380 0.2371 0.2426
0.2326 0.2399 0.2535 0.2399 0.2380 0.2362
0.2335 0.2335 0.2299 0.2353 0.2445 0.2335
0.2308 0.2399 0.2354 0.2345 0.2290 0.2399
0.2490 0.2336 0.2418 0.2482 0.2418 0.2336
0.2327 0.2555 0.2409 0.2336 0.2573 0.2391
0.2382 0.2509 0.2400 0.2364 0.2373 0.2400
0.2382 0.2437 0.2482 0.2428 0.2382 0.2382
0.2446 0.2373 0.2355 0.2419 0.2446 0.2355
0.2373 0.2465 0.2364 0.2401 0.2383 0.2383
0.2419 0.2365 0.2374 0.2310 0.2474 0.2456
0.2274 0.2383 0.2365 0.2338 0.2310 0.2310
0.2347 0.2256 0.2320 0.2393 0.2365 0.2347
0.2402 0.2384 0.2356 0.2375 0.2357 0.2420
0.2384 0.2402 0.2384 0.2229 0.2402 0.2439
0.2348 0.2412 0.2430 0.2403 0.2384 0.2330
0.2394 0.2421 0.2284 0.2339 0.2385 0.2321
0.2348 0.2358 0.2312 0.2330 0.2440 0.2349
0.2212 0.2321 0.2440 0.2367 0.2322 0.2349
0.2404 0.2395 0.2303 0.2367 0.2440 0.2468
0.2449 0.2522 0.2614 0.2431 0.2386 0.2349
0.2295 0.2331 0.2213 0.2359 0.2359 0.2231
0.2532 0.2459 0.2323 0.2459 0.2423 0.2405
0.2478 0.2441 0.2359 0.2441 0.2478 0.2478
0.2596 0.2551 0.2350 0.2405 0.2487 0.2433
0.2378 0.2342 0.2396 0.2396 0.2342 0.2324
0.2478 0.2433 0.2433 0.2442 0.2242 0.2342
0.2297 0.2369 0.2406 0.2397 0.2370 0.2260
0.2433 0.2251 0.2342 0.2488 0.2288 0.2461
0.2516 0.2397 0.2452 0.2498 0.2325 0.2288
0.2416 0.2379 0.2389 0.2352 0.2279 0.2371
0.2343 0.2398 0.2389 0.2398 0.2444 0.2280
0.2353 0.2398 0.2344 0.2344 0.2335 0.2326
0.2253 0.2462 0.2426 0.2280 0.2344 0.2262
0.2371 0.2390 0.2390 0.2481 0.2308 0.2262
0.2408 0.2372 0.2335 0.2363 0.2408 0.2499
0.2408 0.2281 0.2381 0.2409 0.2308 0.2418
0.2491 0.2473 0.2336 0.2336 0.2464 0.2363
0.2309 0.2418 0.2509 0.2436 0.2309 0.2355
0.2537 0.2491 0.2446 0.2446 0.2400 0.2318
0.2355 0.2519 0.2428 0.2492 0.2410 0.2346
0.2464 0.2346 0.2319 0.2337 0.2437 0.2401
0.2255 0.2319 0.2428 0.2456 0.2374 0.2310
0.2392 0.2438 0.2401 0.2447 0.2429 0.2356
0.2356 0.2392 0.2429 0.2393 0.2393 0.2493
0.2375 0.2375 0.2548 0.2466 0.2402 0.2411
0.2338 0.2366 0.2493 0.2420 0.2375 0.2366
0.2302 0.2357 0.2320 0.2439 0.2430 0.2312
0.2503 0.2485 0.2439 0.2476 0.2439 0.2330
0.2294 0.2421 0.2440 0.2367 0.2394 0.2503
0.2403 0.2458 0.2376 0.2294 0.2540 0.2577
0.2504 0.2358 0.2331 0.2395 0.2458 0.2376
0.2413 0.2431 0.2295 0.2504 0.2477 0.2349
0.2441 0.2532 0.2605 0.2477 0.2350 0.2404
0.2395 0.2350 0.2459 0.2350 0.2250 0.2441
0.2377 0.2304 0.2405 0.2396 0.2350 0.2323
0.2378 0.2378 0.2469 0.2505 0.2296 0.2387
0.2360 0.2269 0.2506 0.2515 0.2469 0.2378
0.2242 0.2333 0.2369 0.2451 0.2460 0.2388
0.2451 0.2479 0.2397 0.2415 0.2433 0.2388
0.2415 0.2370 0.2415 0.2461 0.2516 0.2516
0.2279 0.2297 0.2397 0.2370 0.2516 0.2470
0.2370 0.2507 0.2370 0.2370 0.2461 0.2452
0.2553 0.2270 0.2270 0.2380 0.2289 0.2507
0.2435 0.2316 0.2453 0.2426 0.2380 0.2462
0.2417 0.2244 0.2289 0.2435 0.2508 0.2462
0.2390 0.2335 0.2353 0.2444 0.2290 0.2353
0.2444 0.2290 0.2381 0.2436 0.2408 0.2454
0.2463 0.2390 0.2408 0.2390 0.2272 0.2354
0.2472 0.2427 0.2327 0.2409 0.2445 0.2473
0.2536 0.2482 0.2473 0.2409 0.2418 0.2436
0.2464 0.2446 0.2446 0.2400 0.2336 0.2373
0.2382 0.2446 0.2410 0.2410 0.2373 0.2273
0.2237 0.2218 0.2337 0.2346 0.2383 0.2374
0.2310 0.2419 0.2492 0.2438 0.2483 0.2501
0.2401 0.2401 0.2319 0.2338 0.2520 0.2447
0.2502 0.2374 0.2238 0.2493 0.2356 0.2402
0.2511 0.2320 0.2393 0.2356 0.2375 0.2511
0.2393 0.2265 0.2329 0.2320 0.2348 0.2539
0.2503 0.2439 0.2448 0.2475 0.2475 0.2448
0.2375 0.2384 0.2439 0.2366 0.2457 0.2385
0.2321 0.2448 0.2294 0.2203 0.2348 0.2412
0.2421 0.2494 0.2431 0.2358 0.2394 0.2385
0.2385 0.2440 0.2422 0.2376 0.2449 0.2486
0.2376 0.2386 0.2440 0.2395 0.2413 0.2450
0.2477 0.2486 0.2404 0.2459 0.2477 0.2395
0.2541 0.2413 0.2377 0.2523 0.2395 0.2414
0.2414 0.2478 0.2478 0.2377 0.2396 0.2368
0.2460 0.2414 0.2332 0.2451 0.2414 0.2405
0.2469 0.2423 0.2451 0.2451 0.2433 0.2451
0.2415 0.2415 0.2460 0.2551 0.2424 0.2351
0.2433 0.2470 0.2497 0.2415 0.2488 0.2488
0.2406 0.2461 0.2479 0.2506 0.2470 0.2406
0.2406 0.2452 0.2452 0.2443 0.2370 0.2261
0.2434 0.2525 0.2379 0.2398 0.2452 0.2389
0.2398 0.2452 0.2370 0.2352 0.2453 0.2516
0.2507 0.2380 0.2425 0.2498 0.2389 0.2398
0.2398 0.2389 0.2398 0.2426 0.2444 0.2371
0.2408 0.2353 0.2344 0.2508 0.2481 0.2481
0.2463 0.2426 0.2508 0.2454 0.2326 0.2363
0.2481 0.2591 0.2481 0.2381 0.2408 0.2244
0.2418 0.2527 0.2409 0.2554 0.2381 0.2418
0.2618 0.2518 0.2509 0.2509 0.2418 0.2446
0.2528 0.2364 0.2418 0.2355 0.2254 0.2528
0.2464 0.2455 0.2482 0.2473 0.2537 0.2373
0.2492 0.2492 0.2291 0.2474 0.2483 0.2428
0.2538 0.2428 0.2401 0.2547 0.2392 0.2356
0.2483 0.2438 0.2456 0.2374 0.2410 0.2492
0.2429 0.2429 0.2374 0.2338 0.2338 0.2456
0.2475 0.2256 0.2338 0.2466 0.2293 0.2283
0.2384 0.2284 0.2375 0.2457 0.2329 0.2411
0.2430 0.2384 0.2357 0.2375 0.2384 0.2375
0.2457 0.2421 0.2521 0.2485 0.2494 0.2485
0.2403 0.2576 0.2558 0.2549 0.2467 0.2540
0.2576 0.2440 0.2476 0.2412 0.2567 0.2485
0.2422 0.2586 0.2476 0.2431 0.2558 0.2613
0.2449 0.2467 0.2622 0.2650 0.2613 0.2468
0.2522 0.2559 0.2431 0.2559 0.2586 0.2441
0.2413 0.2505 0.2605 0.2413 0.2395 0.2514
0.2541 0.2559 0.2505 0.2541 0.2614 0.2623
0.2459 0.2368 0.2378 0.2359 0.2323 0.2350
0.2487 0.2505 0.2505 0.2569 0.2569 0.2533
0.2615 0.2551 0.2478 0.2560 0.2588 0.2615
0.2497 0.2460 0.2515 0.2561 0.2506 0.2524
