Archivo de aceleración parte de la Red Nacional de Acelerógrafos (RENAC) Ecuador
          
Evento: 201604162358
Fecha del evento UTM (aammdd):                  2016    4   16
Hora del registro UTM (hhmmss): 23   59 25.00
Estación:                                      AMIL
Componente:                                        N
Frecuencia de muestreo (Hz):            1.000000e+02
Unidades: cm/s^2
_____________________________________________
0.0969 -0.0588 -0.1902 -0.3027 -0.3985 -0.4713
-0.4754 -0.4347 -0.3443 -0.2223 -0.0928 0.0326
0.1284 0.2069 0.2541 0.2793 0.2545 0.2151
0.2015 0.2075 0.2365 0.2667 0.2929 0.2822
0.2355 0.1599 0.0562 -0.0752 -0.1911 -0.2478
-0.2296 -0.1722 -0.1180 -0.0881 -0.0931 -0.1350
-0.1873 -0.2236 -0.2296 -0.2239 -0.2365 -0.2658
-0.3024 -0.3143 -0.2847 -0.2296 -0.1795 -0.1278
-0.0764 -0.0125 0.0250 0.0660 0.1126 0.1265
0.1126 0.0903 0.0925 0.1174 0.1552 0.1593
0.1230 0.0660 0.0411 0.0493 0.0903 0.1517
0.1895 0.2280 0.3052 0.4205 0.5163 0.5730
0.5995 0.5970 0.5563 0.4719 0.3569 0.2113
0.0878 -0.0396 -0.1773 -0.3200 -0.4464 -0.5258
-0.5935 -0.6777 -0.7832 -0.8497 -0.8765 -0.8500
-0.8355 -0.8437 -0.8535 -0.8135 -0.6767 -0.4706
-0.2378 -0.0402 0.1347 0.2879 0.4697 0.6673
0.8585 1.0070 1.0797 1.0857 1.0586 1.0482
1.0240 0.9562 0.8481 0.7243 0.5967 0.4952
0.3947 0.2560 0.0603 -0.1804 -0.4240 -0.6566
-0.8560 -1.0130 -1.1494 -1.2260 -1.2184 -1.1289
-0.9455 -0.6893 -0.3991 -0.1508 0.0455 0.1880
0.3093 0.3767 0.3849 0.3225 0.1949 0.0584
-0.0780 -0.1886 -0.2901 -0.3244 -0.3342 -0.3020
-0.2226 -0.0786 0.0928 0.2220 0.3323 0.4095
0.4842 0.5195 0.5570 0.5992 0.6354 0.6187
0.5551 0.4709 0.3874 0.3288 0.2466 0.1668
0.0859 0.0106 -0.0755 -0.1234 -0.1287 -0.1319
-0.1571 -0.1788 -0.1713 -0.1769 -0.2031 -0.2598
-0.3143 -0.3714 -0.4180 -0.4659 -0.4820 -0.4413
-0.3685 -0.2898 -0.2472 -0.2217 -0.2063 -0.1769
-0.1190 -0.0184 0.1038 0.2403 0.3871 0.5415
0.6849 0.7615 0.7552 0.6433 0.4483 0.2135
-0.0178 -0.1921 -0.2872 -0.3295 -0.3241 -0.2797
-0.1801 -0.0736 -0.0061 0.0295 0.0351 0.0257
-0.0307 -0.0707 -0.0934 -0.0865 -0.0578 0.0232
0.1394 0.2173 0.2415 0.1899 0.1171 0.0118
-0.0881 -0.1845 -0.2100 -0.1602 -0.0676 0.0408
0.1369 0.2245 0.2359 0.2116 0.1416 0.0698
-0.0109 -0.0903 -0.1561 -0.2211 -0.2560 -0.2519
-0.1984 -0.1376 -0.0525 0.0087 0.0288 0.0099
-0.0147 -0.0184 -0.0008 0.0042 -0.0436 -0.1026
-0.1751 -0.2371 -0.2954 -0.3109 -0.2866 -0.2242
-0.1139 0.0238 0.2154 0.4287 0.6405 0.8147
0.9537 1.0728 1.1655 1.2137 1.1771 1.0293
0.7905 0.5305 0.2507 -0.0307 -0.3052 -0.5727
-0.7709 -0.8916 -0.9638 -1.0035 -0.9840 -0.9115
-0.8094 -0.6698 -0.5185 -0.3887 -0.2743 -0.1483
-0.0670 -0.0235 0.0304 0.1029 0.1921 0.2715
0.3701 0.4839 0.6247 0.7568 0.8421 0.8667
0.8692 0.8478 0.7775 0.7003 0.6112 0.5270
0.4268 0.3118 0.1776 0.0408 -0.0506 -0.0963
-0.1268 -0.1905 -0.2797 -0.3745 -0.4514 -0.5015
-0.5437 -0.5923 -0.6496 -0.6714 -0.6710 -0.6367
-0.5800 -0.5075 -0.4057 -0.3106 -0.2428 -0.2346
-0.2491 -0.2586 -0.2456 -0.2627 -0.3187 -0.3364
-0.2661 -0.0859 0.1672 0.4331 0.6260 0.7489
0.8267 0.8680 0.8642 0.8254 0.7820 0.6972
0.5834 0.4338 0.2532 0.0739 -0.0654 -0.1391
-0.1845 -0.2434 -0.3358 -0.4271 -0.5160 -0.6074
-0.6909 -0.7977 -0.9313 -1.0473 -1.0854 -1.0319
-0.9011 -0.7193 -0.5110 -0.2787 -0.0263 0.2592
0.5261 0.7659 0.9323 0.9950 0.9792 0.9316
0.9332 0.9250 0.8677 0.7476 0.6168 0.4747
0.2989 0.0673 -0.2116 -0.4854 -0.7536 -0.9890
-1.1516 -1.1765 -1.0864 -0.9134 -0.7208 -0.5337
-0.3487 -0.1694 -0.0165 0.0830 0.1394 0.1249
0.0862 0.0452 0.0065 -0.0307 -0.0635 -0.0575
0.0049 0.1473 0.3222 0.4854 0.5923 0.7060
0.8456 0.9487 0.9647 0.8689 0.7448 0.5390
0.2866 0.0789 -0.0534 -0.1082 -0.0912 -0.0355
-0.0210 -0.0383 -0.0389 -0.0430 -0.0931 -0.1902
-0.3354 -0.4883 -0.6121 -0.7051 -0.8002 -0.8604
-0.8645 -0.8210 -0.7123 -0.5110 -0.2551 -0.0213
0.1369 0.1886 0.1398 0.0077 -0.1508 -0.3033
-0.3411 -0.2557 -0.0897 0.0859 0.2570 0.4476
0.6216 0.7564 0.7712 0.6944 0.5273 0.3465
0.1861 0.0455 -0.0758 -0.1864 -0.2255 -0.1974
-0.0874 0.0310 0.1438 0.2012 0.2422 0.2749
0.3014 0.3118 0.2538 0.1675 0.0314 -0.0673
-0.1379 -0.1448 -0.1013 -0.0033 0.1205 0.2192
0.2611 0.2166 0.1130 -0.0553 -0.2519 -0.4813
-0.6739 -0.7977 -0.8330 -0.8144 -0.7590 -0.6509
-0.4457 -0.1826 0.1013 0.3878 0.6389 0.8409
0.9858 1.0731 1.0596 0.9650 0.7974 0.6307
0.5106 0.4662 0.4489 0.3947 0.3206 0.2381
0.1492 0.0213 -0.1023 -0.2100 -0.2961 -0.3714
-0.4227 -0.4470 -0.4366 -0.3421 -0.2270 -0.0903
0.0336 0.1476 0.2258 0.2667 0.2318 0.1338
0.0222 -0.0909 -0.1958 -0.3525 -0.4842 -0.6194
-0.7177 -0.8084 -0.8403 -0.8125 -0.7275 -0.5888
-0.4706 -0.3562 -0.2784 -0.2198 -0.2743 -0.4155
-0.5894 -0.7171 -0.7596 -0.7189 -0.5923 -0.4032
-0.2009 -0.0159 0.1782 0.3408 0.4423 0.5088
0.5976 0.7026 0.8324 0.9695 1.1053 1.2411
1.3908 1.4960 1.4859 1.3555 1.0949 0.7252
0.2513 -0.2472 -0.7082 -1.0703 -1.2972 -1.3870
-1.3804 -1.3196 -1.2083 -1.0586 -0.8510 -0.6427
-0.4429 -0.2248 0.0421 0.3222 0.5642 0.7574
0.9008 0.9997 1.0167 1.0152 1.0467 1.1204
1.1434 1.0590 0.8718 0.6367 0.3688 0.0758
-0.1669 -0.3383 -0.4341 -0.5444 -0.6565 -0.7820
-0.8425 -0.7829 -0.6244 -0.4451 -0.2973 -0.1265
0.0462 0.2327 0.3953 0.5324 0.5790 0.5598
0.4839 0.3553 0.1908 -0.0124 -0.1914 -0.3263
-0.3874 -0.4224 -0.4464 -0.5006 -0.6036 -0.7259
-0.8302 -0.8837 -0.9005 -0.9093 -0.8897 -0.7905
-0.5954 -0.2775 0.1476 0.6578 1.1466 1.4957
1.6873 1.7642 1.7651 1.6719 1.4853 1.2439
0.9427 0.5938 0.2705 -0.0219 -0.2639 -0.4334
-0.5050 -0.4987 -0.4360 -0.3222 -0.2050 -0.1439
-0.2075 -0.3808 -0.6099 -0.7898 -0.8929 -0.9039
-0.8248 -0.6446 -0.3525 -0.0184 0.3449 0.6707
0.9253 1.0958 1.2086 1.2852 1.3334 1.3114
1.2080 1.0243 0.7460 0.4495 0.1539 -0.0991
-0.3651 -0.6228 -0.8125 -0.8989 -0.9118 -0.8740
-0.7883 -0.7073 -0.6137 -0.5144 -0.3399 -0.1271
0.0380 0.0711 0.0225 -0.0326 -0.0537 -0.0477
-0.0477 -0.0238 -0.0058 0.0912 0.2721 0.5129
0.7054 0.7747 0.7183 0.5538 0.3654 0.2233
0.1999 0.2311 0.2784 0.3033 0.3244 0.3733
0.4202 0.4262 0.3528 0.1924 -0.0553 -0.3194
-0.5226 -0.6282 -0.7035 -0.7476 -0.7457 -0.6871
-0.5507 -0.3660 -0.1867 -0.0405 0.0786 0.1240
0.1086 0.0540 0.0310 0.0559 0.1335 0.2151
0.2787 0.3928 0.5901 0.8604 1.1059 1.2770
1.4009 1.5175 1.5795 1.5209 1.3070 1.0051
0.7092 0.4583 0.2705 0.1237 -0.0424 -0.2327
-0.4549 -0.7391 -1.0646 -1.3898 -1.6567 -1.8193
-1.8672 -1.8297 -1.7264 -1.5616 -1.3271 -1.1018
-0.9071 -0.7022 -0.4939 -0.2746 -0.0411 0.1820
0.3197 0.3799 0.4208 0.4776 0.5453 0.5775
0.5481 0.4312 0.3024 0.1612 0.0692 0.0509
0.0603 0.0525 0.0014 -0.0210 -0.0033 0.0770
0.1410 0.1962 0.2198 0.2129 0.1498 0.0638
-0.0641 -0.2374 -0.3692 -0.4442 -0.4227 -0.3200
-0.0789 0.2374 0.5787 0.8141 0.8708 0.7199
0.4190 0.1032 -0.1227 -0.1602 -0.0288 0.2456
0.6455 1.1699 1.7103 2.1502 2.3283 2.2548
1.9904 1.5253 0.9109 0.1842 -0.5648 -1.2238
-1.7059 -2.0494 -2.2567 -2.3141 -2.1808 -1.8934
-1.5212 -1.0763 -0.6197 -0.1561 0.2472 0.5431
0.7435 0.8727 0.9093 0.8327 0.6361 0.3758
0.1316 -0.0547 -0.1577 -0.1886 -0.1602 -0.1489
-0.1599 -0.2478 -0.4227 -0.6723 -0.9068 -1.0643
-1.1529 -1.1979 -1.2244 -1.1494 -0.9713 -0.7300
-0.6250 -0.6975 -0.9004 -1.0845 -1.1566 -1.0753
-0.8648 -0.6654 -0.4662 -0.3150 -0.1186 0.0890
0.3137 0.4861 0.5841 0.6625 0.7423 0.9027
1.0905 1.3060 1.4258 1.4866 1.5282 1.5011
1.3760 1.1806 0.9934 0.8724 0.8125 0.7615
0.7363 0.6575 0.5091 0.2472 -0.1199 -0.4776
-0.7508 -0.9506 -1.1232 -1.2534 -1.2783 -1.1948
-1.0441 -0.8223 -0.5992 -0.3966 -0.1889 0.0887
0.4555 0.8229 1.1579 1.4226 1.6293 1.7799
1.8691 1.8575 1.7443 1.5247 1.1815 0.7612
0.3042 -0.1861 -0.7561 -1.3829 -2.0500 -2.6150
-2.9821 -3.1009 -2.9890 -2.7114 -2.3513 -2.0264
-1.7352 -1.3958 -0.9490 -0.4577 0.0036 0.3572
0.6071 0.7731 0.8702 0.9348 0.9821 1.0148
1.1087 1.2187 1.3136 1.3413 1.2799 1.1604
0.9928 0.8620 0.7278 0.5633 0.3588 0.1788
0.0017 -0.1520 -0.2418 -0.2819 -0.2850 -0.2579
-0.1880 -0.1552 -0.1319 -0.0663 0.0436 0.1539
0.1955 0.1584 0.0235 -0.1750 -0.3862 -0.5611
-0.5979 -0.4754 -0.2920 -0.1038 0.1388 0.3909
0.5233 0.5192 0.4930 0.5141 0.6168 0.7085
0.7281 0.7196 0.7189 0.6874 0.5806 0.4278
0.2794 0.2207 0.2037 0.1769 0.0446 -0.1697
-0.3915 -0.5607 -0.6896 -0.8557 -1.0867 -1.3498
-1.4465 -1.3167 -1.0136 -0.6260 -0.2255 0.0950
0.2693 0.3140 0.2686 0.1461 -0.0020 -0.1331
-0.2318 -0.2645 -0.2800 -0.3439 -0.4684 -0.6276
-0.8283 -1.0706 -1.2833 -1.3448 -1.2540 -1.0523
-0.8122 -0.6014 -0.4189 -0.1782 0.1205 0.4038
0.6254 0.8299 1.0870 1.3927 1.6826 1.8389
1.8348 1.7002 1.4727 1.1554 0.7968 0.4212
0.0815 -0.2283 -0.4779 -0.6770 -0.8381 -1.0508
-1.1945 -1.2940 -1.2943 -1.1147 -0.9915 -0.7608
-0.4079 -0.0317 0.2444 0.4719 0.5904 0.5270
0.3625 0.1376 -0.1495 -0.4136 -0.6591 -0.9751
-1.2988 -1.5345 -1.6073 -1.5433 -1.3476 -1.0640
-0.6761 -0.1807 0.4029 0.9411 1.3716 1.6813
1.9136 2.0125 1.9331 1.7894 1.5584 1.1976
0.7341 0.2472 -0.1993 -0.5239 -0.6937 -0.7763
-0.8374 -0.8648 -0.9036 -1.0167 -1.2108 -1.4361
-1.6334 -1.7948 -1.8934 -1.9290 -1.8795 -1.7686
-1.6050 -1.3763 -1.0643 -0.6162 -0.1126 0.3156
0.5425 0.6733 0.7725 0.8488 0.8762 0.8012
0.6770 0.5784 0.6339 0.8106 1.0980 1.4759
1.8836 2.1471 2.2287 2.1801 1.9983 1.7131
1.3454 0.9427 0.5192 0.2085 0.1026 0.2066
0.4167 0.6178 0.7212 0.7457 0.7186 0.5708
0.2639 -0.2245 -0.7936 -1.3895 -1.9186 -2.2892
-2.4376 -2.3311 -1.9933 -1.4714 -0.8859 -0.3225
0.1398 0.4801 0.6458 0.6024 0.3676 0.0534
-0.2649 -0.5790 -0.8566 -1.0214 -1.0227 -0.8963
-0.7451 -0.6014 -0.3298 0.1023 0.6096 1.0492
1.4239 1.7207 1.8780 1.8364 1.6413 1.3602
1.0101 0.6506 0.2942 -0.0367 -0.3547 -0.6871
-1.0643 -1.4201 -1.6886 -1.8367 -1.9246 -1.9681
-1.8801 -1.6337 -1.2720 -0.8859 -0.4687 -0.1205
0.1092 0.2699 0.4023 0.5116 0.5447 0.5233
0.3890 0.1877 -0.1089 -0.4927 -0.8926 -1.2130
-1.3678 -1.3958 -1.2906 -1.0640 -0.7025 -0.2819
0.1505 0.4732 0.7350 0.9591 1.0880 1.0627
0.9376 0.8633 0.8964 1.1554 1.6656 2.4222
3.2037 3.8541 4.2511 4.3334 4.0693 3.4535
2.5239 1.3952 0.1643 -1.0860 -2.1168 -2.8558
-3.3231 -3.7022 -4.0690 -4.4584 -4.8445 -5.1278
-5.2475 -5.2154 -5.0840 -4.7335 -4.0658 -3.0817
-1.8880 -0.6676 0.3991 1.2345 1.8304 2.2205
2.4385 2.4855 2.3223 1.9211 1.3640 0.8028
0.3540 0.0399 -0.1552 -0.2894 -0.3493 -0.3159
-0.1971 -0.0068 0.1369 0.2053 0.2346 0.3676
0.5951 0.8066 0.9799 1.0363 1.0145 1.0076
1.1368 1.3243 1.4072 1.3454 1.1204 0.8021
0.4757 0.1372 -0.1817 -0.4656 -0.8242 -1.3690
-1.9504 -2.3374 -2.5098 -2.4902 -2.4061 -2.2986
-2.1927 -2.0147 -1.6687 -1.0851 -0.3392 0.3843
1.1289 1.8471 2.4830 3.0143 3.4419 3.5941
3.4548 3.0565 2.4499 1.8045 1.1746 0.6247
0.0540 -0.4927 -0.9490 -1.2272 -1.2253 -0.9821
-0.5778 -0.0928 0.4208 0.8705 1.2030 1.3508
1.3325 1.1806 0.9172 0.6638 0.4555 0.3134
0.2415 0.2296 0.2179 0.0758 -0.3093 -0.8708
-1.3845 -1.6936 -1.7311 -1.4818 -0.9814 -0.3395
0.2772 0.8548 1.4418 1.9608 2.3462 2.4552
2.3506 2.1716 1.9712 1.6826 1.3196 0.9115
0.4839 0.1136 -0.1807 -0.3732 -0.4738 -0.4552
-0.3102 -0.0137 0.3644 0.6789 0.8081 0.7423
0.5110 0.2343 -0.1360 -0.5554 -0.9672 -1.3085
-1.6533 -2.0018 -2.2009 -2.1247 -1.7034 -1.1377
-0.6430 -0.4290 -0.3112 -0.1038 0.2973 0.8141
1.3432 1.7138 1.8723 1.8382 1.7182 1.4790
1.1100 0.6449 0.2261 -0.0849 -0.3146 -0.2422
-0.3200 -0.4961 -0.7218 -1.0029 -1.2442 -1.3051
-1.0845 -0.7785 -0.4662 -0.1615 0.0559 0.1631
0.3087 0.3459 0.2475 0.0039 -0.3235 -0.6260
-0.8308 -0.8109 -0.6153 -0.2737 0.1524 0.5816
0.9855 1.2925 1.5880 1.7995 1.8959 1.8568
1.6404 1.2487 0.7275 0.1779 -0.3833 -0.8034
-1.0539 -1.1800 -1.2483 -1.2351 -1.0782 -0.8283
-0.5147 -0.2916 -0.2176 -0.1908 -0.1965 -0.1952
-0.1776 -0.0654 0.0837 0.2762 0.5179 0.7334
0.9569 1.1072 1.1456 1.0347 0.8220 0.7369
0.6811 0.5765 0.4836 0.2715 -0.0345 -0.3695
-0.6326 -0.8910 -1.1639 -1.4831 -1.7390 -1.7705
-1.5776 -1.2534 -1.0051 -0.8160 -0.6562 -0.5485
-0.5229 -0.5872 -0.6001 -0.4782 -0.2327 0.1420
0.5500 1.0092 1.4541 1.8550 2.1382 2.2325
2.1089 1.7774 1.2584 0.5938 -0.0537 -0.6241
-1.1497 -1.6671 -2.0790 -2.3657 -2.4722 -2.4461
-2.3071 -2.1149 -1.8783 -1.6693 -1.6167 -1.7582
-2.0276 -2.2986 -2.4319 -2.2554 -1.8811 -1.3356
-0.6641 0.1224 0.9383 1.7412 2.4701 2.9963
3.2434 3.1816 2.9049 2.5142 2.1512 1.7787
1.4768 1.2547 1.0987 1.0665 1.2219 1.5427
1.9722 2.4420 2.8684 3.1744 3.2125 3.0445
2.6780 2.2227 1.7743 1.4349 1.1702 0.9635
0.7769 0.5472 0.3503 0.2318 0.2028 0.2047
0.2094 0.0789 -0.2658 -0.8935 -1.6753 -2.5063
-3.2478 -3.9262 -4.3434 -4.3570 -3.9029 -3.1164
-2.0815 -0.8573 0.2841 1.2477 1.9340 2.4779
2.5781 2.6071 2.3913 1.8127 1.1737 0.5460
0.0468 -0.3257 -0.3502 -0.2248 0.0055 0.3266
0.6295 0.7432 0.7747 0.7391 0.4691 -0.0118
-0.5670 -1.1815 -1.8757 -2.5520 -3.1091 -3.5780
-3.9593 -4.2130 -4.3437 -4.3680 -4.3264 -4.2029
-4.0107 -3.7664 -3.5405 -3.3083 -3.0899 -2.9071
-2.7757 -2.5737 -2.1779 -1.5146 -0.5749 0.4864
1.5433 2.5176 3.3584 3.9187 4.1273 4.0564
3.7129 3.1756 2.5495 1.8836 1.2131 0.5182
-0.1495 -0.7432 -1.2635 -1.6205 -1.7188 -1.5817
-1.2590 -0.7722 -0.2135 0.3673 0.9695 1.5130
1.9038 2.0336 2.0194 1.9161 1.6697 1.2758
0.7845 0.1933 -0.4735 -1.0693 -1.5801 -1.9296
-2.0219 -1.7856 -1.3091 -0.7353 -0.0748 0.6102
1.2203 1.7081 2.0163 2.0979 2.0384 2.0292
2.0951 2.1364 2.0459 1.8587 1.6621 1.4138
1.0665 0.5248 -0.1709 -0.9534 -1.7254 -2.3846
-2.8769 -3.0858 -2.9607 -2.5510 -2.0015 -1.4689
-1.0148 -0.6458 -0.3168 0.0235 0.3496 0.6005
0.7565 0.8850 1.0139 1.1088 1.0766 0.8428
0.3919 -0.2485 -0.9679 -1.7330 -2.5057 -3.2087
-3.7538 -4.0863 -4.2123 -4.0812 -3.6836 -3.0108
-2.1540 -1.2940 -0.5081 0.2718 1.0533 1.6898
2.0903 2.2703 2.3434 2.2725 1.9801 1.4302
0.6503 -0.1492 -0.7353 -0.9843 -0.8844 -0.5850
-0.2860 -0.0011 0.2869 0.6244 0.9692 1.2616
1.3813 1.2436 0.8964 0.4984 0.2570 0.2787
0.6373 1.2272 1.9968 2.8476 3.6237 4.2322
4.6529 4.8322 4.8029 4.6393 4.3056 3.7097
2.7918 1.6287 0.3720 -0.8380 -1.9079 -2.8015
-3.5619 -4.0466 -4.2262 -4.1439 -3.8748 -3.4163
-2.8123 -2.1764 -1.5912 -1.1796 -0.9417 -0.9332
-1.0098 -1.0640 -1.0293 -0.8415 -0.4807 0.0522
0.6477 1.2134 1.6498 1.8817 1.8613 1.5726
0.9666 0.1420 -0.7300 -1.4963 -2.0585 -2.3960
-2.5022 -2.4045 -2.1426 -1.7727 -1.2486 -0.5604
0.2214 1.0016 1.7406 2.4502 3.0376 3.4425
3.5746 3.3540 2.8296 2.0828 1.1926 0.3002
-0.4728 -1.0618 -1.3722 -1.4790 -1.4336 -1.2918
-1.1755 -1.1733 -1.2943 -1.5647 -1.9775 -2.4713
-3.0212 -3.4529 -3.8238 -4.1304 -4.2646 -4.0712
-3.5897 -2.8709 -1.9479 -1.0964 -0.3213 0.3837
1.0117 1.4828 1.8669 2.1676 2.3727 2.4754
2.3472 1.9410 1.3785 0.9209 0.5103 0.1101
-0.2913 -0.6411 -0.8989 -1.0196 -0.9884 -0.9266
-0.8825 -0.8979 -1.0470 -1.2839 -1.4654 -1.5212
-1.3555 -0.9991 -0.5740 -0.1483 0.2627 0.6131
0.9241 1.1746 1.3842 1.6344 1.9259 2.0989
2.0642 1.8912 1.7456 1.6432 1.6022 1.6218
1.5452 1.3501 1.0120 0.7186 0.4823 0.4231
0.5456 0.8541 1.3426 1.9259 2.5807 3.1665
3.6804 3.9798 4.0135 3.6924 3.0770 2.1984
1.1185 -0.0017 -1.0589 -1.9564 -2.7168 -3.1479
-3.1702 -2.8157 -2.2378 -1.6098 -0.9546 -0.3376
0.2148 0.6534 1.0142 1.2673 1.3706 1.3895
1.4084 1.4998 1.6653 1.7614 1.6341 1.3300
0.8803 0.3260 -0.1612 -0.5658 -1.0013 -1.4891
-2.0172 -2.5573 -2.9878 -3.2118 -3.2812 -3.3057
-3.3536 -3.4743 -3.7122 -4.0318 -4.4436 -4.8561
-5.2062 -5.4722 -5.6222 -5.5803 -5.2254 -4.5051
-3.3981 -2.0248 -0.5462 0.7829 1.7588 2.1871
2.0645 1.6180 1.0694 0.6033 0.3046 0.2567
0.3799 0.6061 0.8718 1.1803 1.4462 1.5625
1.5896 1.5427 1.4992 1.4705 1.4081 1.2871
1.1595 1.1116 1.1847 1.2581 1.2799 1.2556
1.2701 1.3158 1.4330 1.7443 2.2533 2.9282
3.4961 3.8875 4.0510 3.9893 3.7828 3.5065
3.2402 2.9777 2.7738 2.5829 2.4007 2.1531
1.8077 1.4330 1.0297 0.5961 0.1407 -0.2661
-0.5144 -0.4898 -0.1864 0.3134 0.9008 1.4793
1.9526 2.2908 2.4691 2.5000 2.4014 2.3031
2.2823 2.3588 2.4842 2.5696 2.6979 2.7641
2.7723 2.6112 2.2889 1.9139 1.5379 1.2439
0.9739 0.6348 0.2204 -0.2185 -0.6707 -1.1040
-1.5893 -2.0903 -2.6074 -3.1535 -3.6981 -4.2703
-4.8760 -5.5059 -6.0762 -6.5020 -6.7430 -6.7380
-6.4582 -5.8141 -4.8422 -3.6826 -2.4492 -1.1765
0.1738 1.5628 2.8211 3.8207 4.5187 4.9488
5.1769 5.2110 5.1461 5.0739 5.0717 5.0332
4.8316 4.3655 3.7523 3.0751 2.2195 1.0921
-0.2116 -1.4415 -2.2999 -2.5791 -2.3635 -1.7935
-1.0132 -0.1791 0.5214 1.0063 1.1362 0.8872
0.3269 -0.4413 -1.3035 -2.2469 -3.1564 -3.8937
-4.3431 -4.4235 -4.1799 -3.8187 -3.5206 -3.3643
-3.3769 -3.5468 -3.8301 -4.0891 -4.2215 -4.1090
-3.6990 -3.0086 -2.1029 -1.0599 0.0623 1.1834
2.2110 2.9768 3.4110 3.4986 3.2957 2.8791
2.3456 1.7689 1.2540 0.7502 0.2239 -0.2787
-0.7359 -1.0775 -1.1834 -0.9389 -0.5245 -0.1315
0.1344 0.2494 0.2236 0.1016 -0.1700 -0.6112
-1.0898 -1.5606 -1.9589 -2.1899 -2.1760 -1.9035
-1.4141 -0.7857 -0.1344 0.5066 1.0536 1.4223
1.5348 1.3602 0.9874 0.4804 -0.1142 -0.7498
-1.2991 -1.6072 -1.6211 -1.3851 -0.9140 -0.2989
0.4095 1.1422 1.9407 2.7543 3.4252 3.9039
4.1600 4.1537 3.8289 3.2925 2.6623 1.9725
1.1960 0.3723 -0.5519 -1.4951 -2.3339 -3.0218
-3.6760 -4.3210 -4.8722 -5.2840 -5.3278 -4.8851
-3.9539 -2.7319 -1.3236 0.1603 1.4667 2.4089
2.9541 3.1583 3.0600 2.7055 2.1468 1.4847
0.9808 0.7618 0.7839 0.9121 0.9446 0.8954
0.7946 0.7470 0.7984 0.8100 0.6985 0.5753
0.5787 0.7004 0.8081 0.8308 0.8270 0.7895
0.7297 0.6279 0.4388 0.2589 0.1996 0.2646
0.3383 0.4486 0.6405 0.9726 1.4450 1.8915
2.2259 2.3651 2.3437 2.1509 1.9104 1.6564
1.4519 1.4286 1.5975 1.8843 2.1663 2.3261
2.2085 1.7365 0.8362 -0.3531 -1.7219 -3.1006
-4.4083 -5.5056 -6.2511 -6.4689 -6.1695 -5.5557
-4.6069 -3.4860 -2.3528 -1.2915 -0.3531 0.3285
0.7139 0.8816 1.0092 1.2131 1.4277 1.5402
1.4803 1.1734 0.5542 -0.3906 -1.5902 -2.9418
-4.2593 -5.3102 -6.1024 -6.7030 -7.1215 -7.2343
-6.9841 -6.2388 -4.9919 -3.5159 -1.9933 -0.5469
0.6786 1.5386 2.0264 2.2192 2.1764 1.9889
1.6911 1.3338 1.0832 1.0479 1.1740 1.3271
1.4277 1.3961 1.2619 1.0908 0.9433 0.8409
0.8343 0.9827 1.3637 1.9756 2.6443 3.1466
3.3259 3.1993 2.8681 2.4716 2.0002 1.5424
1.0763 0.6947 0.5113 0.6137 1.0026 1.5430
2.1228 2.4978 2.6037 2.3718 1.9177 1.3309
0.7457 0.2731 -0.1095 -0.4372 -0.6502 -0.6884
-0.5922 -0.4230 -0.3124 -0.1697 0.1190 0.5557
1.0517 1.5244 1.9407 2.3475 2.7562 3.1082
3.2223 2.9513 2.3122 1.3766 0.2683 -0.8998
-1.9977 -2.9326 -3.6073 -3.9870 -4.0233 -3.7021
-3.1702 -2.6087 -2.2104 -2.1600 -2.4596 -2.9298
-3.4031 -3.6669 -3.5194 -2.9370 -2.0941 -1.2294
-0.3780 0.4445 1.1759 1.7796 2.2542 2.5555
2.6695 2.6169 2.2983 1.7333 0.9720 0.1120
-0.7618 -1.5313 -2.1032 -2.5066 -2.7540 -2.8696
-2.8724 -2.7729 -2.6005 -2.3824 -2.0909 -1.7232
-1.2732 -0.8576 -0.5547 -0.3556 -0.2607 -0.3020
-0.5015 -0.7678 -1.0908 -1.4027 -1.6428 -1.7582
-1.6681 -1.3315 -0.7296 0.1073 1.1113 2.2835
3.5235 4.6542 5.5740 6.0728 6.1674 5.7971
4.9324 3.6385 2.1067 0.5233 -0.9877 -2.2813
-3.3527 -4.0815 -4.4978 -4.5801 -4.4446 -4.0831
-3.4658 -2.6185 -1.5367 -0.2743 1.1428 2.6320
4.1698 5.6014 6.7418 7.4849 7.8851 7.9052
7.6260 7.1543 6.5130 5.6427 4.4295 3.0858
1.8071 0.6950 -0.2485 -0.9524 -1.4062 -1.7223
-1.9296 -2.1004 -2.1644 -2.0342 -1.6911 -1.2568
-0.8333 -0.4035 0.0947 0.5381 0.8649 1.1409
1.2682 1.3104 1.3079 1.2446 1.0706 0.8450
0.6717 0.6282 0.6014 0.5630 0.3474 -0.1322
-0.7608 -1.3800 -2.0018 -2.7294 -3.1507 -3.3171
-3.1368 -2.5800 -1.7345 -0.8998 -0.2604 0.1127
0.0859 -0.1186 -0.4111 -0.7293 -1.1884 -1.7472
-2.3683 -2.9755 -3.5128 -3.8452 -3.9930 -3.8846
-3.5017 -2.9033 -2.0670 -1.1078 -0.0903 0.9194
1.9139 2.7877 3.4460 3.8175 3.9225 3.7296
3.2720 2.6242 1.7882 0.8018 -0.3521 -1.5786
-2.7785 -3.8430 -4.7093 -5.4328 -5.9773 -6.2612
-6.0580 -5.3887 -4.2092 -2.6421 -0.8771 0.7653
2.1398 3.1252 3.5935 3.7857 3.5462 3.2336
2.9809 2.8233 2.7883 2.8202 3.0382 3.2279
3.4870 3.7870 3.8506 3.7003 3.3414 2.6667
1.6331 0.4524 -0.6556 -1.6337 -2.1474 -2.0777
-1.6091 -0.7057 0.6383 2.2618 3.7945 5.2415
6.2528 6.7651 6.7144 6.1031 4.9708 3.1057
1.2629 -0.7467 -2.6257 -4.2397 -5.5941 -6.7219
-7.6260 -8.0555 -8.2405 -8.0082 -7.5110 -6.8678
-6.2474 -5.5651 -4.8539 -4.0560 -3.0593 -1.9145
-0.6411 0.6938 2.0078 3.1447 4.1399 4.9491
5.3862 5.4609 5.2582 4.8054 4.1563 3.4476
2.6484 1.6700 0.5866 -0.5774 -1.7916 -2.8838
-3.7160 -4.2908 -4.5996 -4.6305 -4.3929 -4.0040
-3.4302 -2.5844 -1.4213 0.0210 1.5436 2.9843
4.1872 5.1079 5.6257 5.6194 5.2047 4.4585
3.5342 2.6034 1.8030 1.0070 0.3106 -0.1486
