Archivo de aceleración parte de la Red Nacional de Acelerógrafos (RENAC) Ecuador
          
Evento: 201604162358
Fecha del evento UTM (aammdd):                  2016    4   16
Hora del registro UTM (hhmmss): 23   59 20.00
Estación:                                      AMNT0
Componente:                                        N
Frecuencia de muestreo (Hz):            1.000000e+02
Unidades: cm/s^2
_____________________________________________
10.1586 10.1819 11.3145 10.1791 6.4574 5.0018
8.3941 9.1768 10.9455 9.8641 6.9241 5.6216
3.7976 1.8919 -0.8133 -1.3549 -1.2158 -3.8206
-13.9779 -24.8397 -31.3829 -24.5289 -10.3237 2.2757
7.3908 8.9133 9.0168 8.7103 7.6678 6.5004
8.2646 11.5884 15.0474 15.4686 17.3287 18.9595
18.7245 15.9411 12.7690 10.4286 10.7876 12.5940
11.6653 6.1220 -2.0562 -7.2335 -10.1585 -16.0732
-18.4215 -16.7451 -11.3702 -4.8487 1.2488 2.0949
-0.8892 -8.3493 -14.6032 -16.5723 -12.1034 -6.1866
-1.3255 1.0008 -0.0374 -3.3377 -4.9341 -2.0644
3.3563 14.5404 26.3698 33.9002 29.6052 19.1712
4.9214 -8.7205 -17.9500 -22.9215 -22.1406 -15.5115
-9.3023 -8.4858 -10.5722 -8.8427 -4.7704 -2.1170
-1.7335 -1.9462 -2.7030 -3.7225 -1.6626 2.3325
3.9872 2.2562 -4.2198 -9.8273 -10.6073 -8.2710
-4.6259 -2.1590 -0.9681 -0.9675 0.2310 0.1051
0.0222 -2.2157 -6.5904 -10.5539 -13.7787 -15.7095
-15.0599 -12.1344 -7.3402 -2.5763 2.2341 6.5653
8.9248 8.6397 5.6221 0.6198 -3.7998 -7.4106
-13.0779 -17.1835 -18.5726 -17.2381 -12.7372 -5.3990
3.1229 9.0578 12.9806 12.3512 9.0240 7.5450
10.6947 17.9750 26.2383 31.6178 28.3166 21.0852
12.8025 6.9699 3.0272 -0.3440 -5.0789 -9.3375
-12.8936 -11.8071 -5.9063 2.7900 7.0453 6.9439
6.9469 6.6606 7.9664 10.2049 12.0521 12.2992
9.7378 4.6335 -3.5845 -11.8201 -16.2135 -12.7926
-4.0688 2.3118 3.5132 -1.5718 -8.8107 -14.4470
-14.4255 -14.9092 -17.4238 -20.1822 -17.5222 -12.5736
-7.9587 -8.1699 -13.0090 -17.5566 -20.2941 -16.9030
-6.8969 3.4302 13.2399 21.4622 29.5336 30.8458
28.0766 24.8448 21.1767 14.5430 6.5784 -0.5182
-9.7444 -13.5751 -15.7031 -13.9776 -7.3411 0.5100
8.0067 13.7926 16.9571 16.0793 13.4649 10.5098
6.8622 7.8697 7.9020 3.9934 -0.8224 -5.3944
-11.6830 -14.1870 -13.0296 -12.8787 -11.0606 -11.6682
-16.3121 -17.2924 -15.3107 -9.8157 -2.2801 2.9739
3.0463 -2.9885 -8.6272 -11.2362 -11.6037 -9.7611
-8.6990 -12.2168 -15.7434 -19.8779 -20.0771 -16.3565
-10.4089 -2.5656 -0.1690 -1.8444 -5.1580 -3.4264
2.0460 8.8408 14.1880 13.6838 8.9350 8.0859
9.3546 11.6378 14.1240 17.2816 18.1345 12.6359
5.6148 -0.4514 -2.7120 -1.0974 2.3640 6.8681
9.9843 11.3433 8.9059 1.4090 -7.6470 -13.9591
-16.4571 -13.8155 -5.2757 7.1659 18.4232 24.9637
22.7509 14.2857 4.7189 -1.8696 -3.6784 -3.2479
0.8191 5.7311 9.5612 12.0212 12.5830 9.7076
5.7610 2.5678 2.4127 6.5406 12.9601 20.8421
26.7664 27.7172 27.1276 24.3228 17.2075 11.1268
5.9755 1.4065 -4.3354 -12.4964 -21.5868 -27.5634
-25.9911 -20.5649 -13.3720 -3.7920 6.3692 12.2815
12.9187 8.7009 6.7472 8.8240 10.1504 10.1920
9.4498 10.4838 13.3481 15.0839 13.9817 8.0483
3.7985 1.9546 -0.0968 -3.1267 -4.7455 -4.3756
-4.5476 -6.3341 -7.9356 -10.9342 -17.3899 -24.6035
-30.9011 -32.8955 -29.9006 -23.9527 -17.9388 -11.3581
-3.5073 4.3068 9.6132 11.1342 9.9665 7.2214
3.5413 -0.6068 -4.2646 -6.2198 -6.7623 -6.9802
-9.4440 -13.7352 -17.1030 -17.1936 -15.1071 -14.9258
-17.5813 -20.1505 -19.2706 -14.8525 -6.2437 3.7063
9.7658 9.6602 2.8931 -4.4403 -10.5394 -13.1761
-13.2986 -13.2796 -13.6773 -13.0364 -9.5214 -5.3995
-1.6539 1.0450 2.6062 4.1615 4.6066 4.6953
5.4722 5.4725 5.0326 4.8060 5.1651 5.4104
6.6686 9.6876 12.4049 13.9736 11.4720 2.1333
-9.0230 -15.7723 -13.2441 -6.5962 0.3836 7.2931
12.6695 18.4690 24.6220 29.7719 35.0717 35.6781
31.3445 25.9934 22.3461 19.7962 15.3618 11.7492
10.6455 9.4712 5.6067 0.0332 -3.9767 -5.2702
-5.6166 -5.1501 -3.4743 -0.5208 0.5911 -2.3709
-9.9264 -18.2872 -26.1149 -28.5975 -24.6814 -18.5482
-13.2994 -8.2893 -2.1589 2.9469 2.9804 1.6718
2.0067 4.9983 6.9734 6.8108 4.8152 2.2457
1.6597 3.7232 7.5235 10.9649 13.0061 12.5635
11.6302 8.6947 4.9636 2.1594 1.2723 2.3087
4.1438 5.8226 6.7923 6.5271 5.2532 2.9674
-0.7049 -4.2641 -8.2013 -14.0032 -19.7215 -21.4084
-15.9662 -7.0560 0.9518 5.0731 4.4265 2.6360
-0.2174 -5.1771 -13.3907 -21.0974 -25.3272 -28.2132
-29.3710 -31.6849 -32.2488 -27.4348 -20.3253 -14.3490
-10.1354 -6.2000 -4.4868 -5.0752 -3.4552 1.1654
6.7937 10.0946 10.1272 10.9129 12.2673 10.7240
7.6102 5.2836 3.8655 3.3975 2.8239 1.8083
3.4753 4.7951 7.7879 7.9517 5.3032 2.6272
1.2263 0.4562 1.0878 1.5406 -0.0802 -5.1540
-12.2941 -17.1111 -16.4820 -9.7689 -3.6937 2.5206
7.5576 5.9998 0.8125 -1.9730 -0.3183 4.3874
8.3457 8.6719 8.1870 8.2437 6.8702 4.4417
1.1691 -0.0353 -1.8451 -2.6519 -2.8016 -5.0174
-6.9343 -7.7767 -6.7008 -5.8737 -5.6007 -3.9318
-1.2628 1.0566 0.1245 -2.5460 -5.5051 -8.3386
-12.7507 -16.6499 -18.9016 -20.2642 -21.7125 -22.3407
-21.6929 -20.9489 -19.9441 -18.1151 -15.5755 -13.2211
-15.2062 -17.4507 -21.7651 -28.1966 -32.6395 -37.6189
-42.4172 -46.8915 -49.9456 -51.7170 -50.2144 -46.6589
-41.4487 -35.6583 -31.2242 -33.2412 -34.1865 -35.9350
-37.8911 -39.9214 -42.8050 -44.4147 -42.6424 -39.3677
-34.4991 -31.8654 -30.8012 -40.4775 -53.0268 -58.0599
-53.6403 -43.0476 -36.6203 -29.7892 -25.7331 -16.8235
-5.8917 6.4657 15.9996 21.5025 24.4895 31.1987
38.1278 44.0316 46.9170 47.0480 46.3646 43.4695
37.8665 30.8070 25.4194 23.4962 26.3680 30.2322
37.2057 39.8479 48.0569 58.5856 68.8011 83.9468
98.6667 112.1206 118.3352 118.6152 109.2249 89.9139
71.2849 59.1196 49.6370 37.5590 21.1506 -0.1732
-20.0723 -33.4496 -34.9187 -44.0459 -51.7438 -44.0778
-34.4477 -22.5145 -14.4790 -12.6499 -16.1988 -19.5980
-13.2838 -1.3045 7.4305 20.0281 32.6251 47.6790
62.8232 78.2791 91.9055 102.2414 111.0886 117.9836
123.8908 126.6772 125.7090 121.3940 114.7690 109.9535
105.0833 99.5769 88.0763 74.3349 56.3385 34.1161
6.8954 -22.1866 -47.6386 -57.1067 -72.3272 -73.2623
-54.1897 -68.7304 -66.4310 -61.7062 -64.6797 -73.1914
-84.7197 -93.3340 -100.2462 -98.5448 -86.4178 -69.5614
-50.1074 -24.9004 -5.0843 17.0879 32.4931 40.7763
44.6562 57.3039 67.1365 68.7335 62.1590 56.9533
38.6492 19.8626 8.1098 -6.7849 -16.4319 -28.7637
-35.0432 -45.8220 -57.2312 -71.9523 -83.9579 -100.1585
-118.6506 -139.4334 -154.2432 -163.8828 -173.7217 -177.3149
-178.8595 -174.0693 -161.5085 -149.3843 -134.2661 -122.1690
-117.7907 -118.4575 -120.0642 -115.4538 -112.3367 -102.8252
-87.6686 -67.1296 -37.3077 -7.2406 24.2523 54.3037
77.0912 92.2972 102.2348 102.9689 99.2417 89.4767
71.3201 50.0784 25.4507 0.5698 -18.6488 -30.4134
-33.1262 -26.1708 -10.1164 12.2300 34.3935 52.5488
65.6036 72.5345 76.1470 77.5413 75.7744 68.6980
58.0861 45.3599 32.2080 19.8814 4.1102 -7.9410
-1.0493 5.8165 15.1920 21.3918 31.2754 37.8391
38.3635 16.2748 7.7158 4.5208 6.0877 14.6398
5.0075 -7.0208 -18.9081 -19.2964 -22.5276 -25.7066
-24.7290 -19.3260 -17.8080 -22.6356 -14.4764 -7.9293
3.9092 25.1476 56.1842 94.3735 96.2409 100.9939
134.2851 168.6922 134.6477 110.0034 86.9357 68.5953
63.6081 52.7276 46.3739 26.4981 6.2647 -7.7040
-12.8073 -6.1603 7.7567 22.8958 48.1558 75.2646
96.0580 111.3808 124.0260 130.4362 130.1067 123.6546
111.8134 100.6671 95.8241 97.9347 106.8159 122.2024
140.1731 159.2584 180.4015 198.8703 213.6986 224.8881
220.9439 199.5857 150.2148 105.5124 52.8370 -25.6826
-116.0459 -153.7220 -158.7348 -182.5500 -226.4135 -213.1201
-160.1916 -148.9523 -131.8542 -125.3532 -123.6123 -126.2527
-132.4797 -140.6974 -145.8606 -152.0915 -161.4869 -163.4234
-160.4327 -142.5784 -112.6962 -97.3236 -75.8951 -49.7742
-21.6061 -5.4125 -3.6122 0.2059 6.4926 5.7727
-1.0336 -4.2105 2.4178 15.0067 25.1030 34.4522
47.0076 58.4710 66.9196 70.2654 66.3729 42.6654
3.8166 -38.2511 -78.5232 -115.1973 -140.7066 -155.5506
-152.6088 -129.6451 -87.9681 -39.7712 1.5476 46.5106
83.2788 104.0365 134.7799 149.0590 139.7843 122.9565
89.8796 56.4068 22.0446 -17.9496 -54.9851 -83.1638
-102.9343 -114.8121 -120.2087 -116.8131 -105.1747 -83.9707
-55.5066 -27.8486 -2.1191 25.8243 52.5347 81.7752
108.0907 128.5241 140.6704 142.5598 137.4244 121.2972
73.2267 24.2839 -11.6862 -39.9651 -56.2440 -61.0487
-49.2555 -39.7542 -41.2387 -49.4537 -62.3742 -75.1251
-90.8199 -108.6419 -124.1038 -135.6852 -143.5195 -147.0370
-146.4323 -145.0616 -140.3170 -139.9519 -144.2783 -151.5173
-158.5756 -160.5585 -149.3678 -142.3470 -136.3825 -135.9755
-126.4715 -108.3990 -105.4268 -93.4115 -76.9138 -53.5343
-32.2917 -9.8105 10.0053 31.3873 55.5482 80.3243
99.8158 128.0976 148.8264 179.5791 186.0593 202.1822
212.2167 216.7181 200.8742 131.7892 95.2721 46.5429
22.8086 36.8029 64.8787 84.1475 101.5045 105.5714
94.6794 88.1378 87.9812 88.8673 92.6552 81.6247
75.2668 71.3998 70.1067 61.2767 47.4254 42.2049
33.8701 40.7214 36.0639 40.7781 59.6181 71.4523
76.3780 85.6922 92.1304 91.7339 83.6275 60.2888
34.0306 14.2637 -1.4577 -13.7316 -33.1162 -47.2894
-53.8836 -71.8230 -99.8411 -128.0913 -144.9191 -149.3771
-129.7170 -102.5515 -84.2694 -60.3885 -34.2507 -12.8578
4.9895 19.5960 40.2080 73.4343 134.1675 189.4559
211.2636 215.8749 181.7990 140.2412 95.0039 56.9842
20.6674 -51.9593 -108.7925 -162.7955 -162.7891 -171.9972
-164.0552 -112.9270 -62.8501 -47.6510 -25.9491 14.3028
28.1408 43.2581 49.7790 57.3764 50.1531 39.7194
28.8546 24.6628 21.9720 25.9867 19.6252 7.5350
-12.5749 -26.4518 -50.5159 -87.2262 -128.3009 -159.1362
-175.9815 -188.2753 -207.0677 -171.4512 -127.1465 -99.6220
-57.2981 -25.6879 9.5659 48.1333 77.7590 92.3782
126.9821 152.0171 164.9726 167.1214 133.0552 95.0711
35.0242 -13.9463 -50.2825 -110.2551 -176.2399 -182.3052
-127.1770 -60.8673 -15.8641 67.5824 180.6142 206.2298
243.8922 264.3009 274.7005 251.6092 248.6281 270.0970
287.0120 269.5723 256.0804 251.3014 249.9988 247.1961
238.6959 217.6838 182.3394 153.1705 121.0386 83.1184
38.7085 -10.5831 -57.1893 -79.6286 -154.9168 -229.7439
-290.8770 -244.0526 -285.5353 -270.2885 -225.0102 -205.0128
-177.5057 -156.8735 -139.2347 -146.3506 -144.5628 -147.3843
-151.9977 -169.2105 -183.8643 -188.3474 -159.6051 -109.0634
-70.8228 -34.9752 -15.2331 -27.7320 -34.3706 -49.4616
-49.1304 -36.4096 -0.7787 53.3345 189.4238 348.7339
439.0450 501.6169 514.2625 489.3186 436.3020 359.4834
277.1898 232.8263 195.2419 97.4870 -9.7022 -153.0001
-174.3040 -150.2942 -72.5645 -51.9859 -67.0559 -86.9284
-99.3160 -112.9826 -182.2010 -251.1536 -302.5624 -259.3512
-177.8064 -94.2214 -61.6276 -42.6051 -4.5244 0.6342
20.9979 35.5516 -10.2931 -30.6954 -39.4490 -109.1505
-156.9917 -168.0517 -174.4510 -192.2488 -200.7246 -207.5547
-198.8397 -173.3183 -132.7855 -133.3787 -94.9411 -5.4927
28.0121 54.6519 63.3217 58.3164 30.7143 5.3800
-18.9291 -28.0297 -38.5110 -33.9254 -20.5789 7.5062
51.9322 93.8031 109.5308 186.2947 248.7421 283.3026
322.7078 352.9916 340.3186 268.8134 224.1548 175.5361
125.7259 61.5846 14.7460 -51.3242 -147.3460 -205.7961
-140.5019 -133.3487 -188.1193 -133.8474 -77.7707 -17.5186
9.2781 23.8505 19.4466 0.6560 -41.7622 -93.6130
-137.4241 -165.4064 -187.0228 -190.4869 -142.2079 -91.9475
-54.2832 -25.8553 11.6177 51.4272 99.4223 111.8594
82.9870 56.5605 33.4933 -15.6709 -64.9942 -116.7165
-154.9483 -181.3939 -199.8227 -207.3546 -202.7078 -181.6302
-151.5011 -116.7391 -83.1762 -55.6202 -37.0111 -25.8222
-23.4555 -31.6241 -43.9284 -62.8381 -71.4783 -83.6149
-92.9985 -93.3443 -79.2601 -64.8184 -61.3823 -54.2861
-36.4912 -16.1423 17.4215 54.6239 108.9621 116.8652
191.6477 290.4951 308.0404 321.6017 280.6073 220.7071
151.0732 93.2999 34.7486 -15.3214 -57.7928 -83.2496
-89.0337 -71.6987 -56.9995 -36.8120 -14.8540 9.4761
41.2779 75.9123 104.5581 125.8574 134.3528 134.3950
120.6837 94.3350 53.9319 15.6811 -22.0342 -48.3060
-70.9185 -100.0159 -84.8705 -75.9410 -59.3033 -58.9515
-63.0851 -74.9124 -76.5740 -75.8846 -56.3554 -25.8131
-19.6063 -18.2455 -11.6899 -16.6494 -18.3614 -43.6320
-53.8409 -69.0457 -55.5650 -74.7562 -3.7887 59.4260
29.6343 62.5663 83.7100 117.0738 142.5382 122.6008
90.1138 91.6405 66.5213 57.9411 51.9619 39.6726
6.6042 -6.7215 -16.8561 -9.1510 9.6537 34.6803
57.5588 95.5010 133.9447 165.1738 178.6618 166.0256
109.8936 56.8826 19.1103 -39.7363 -85.7246 -86.0951
-47.6188 -1.6218 12.9581 18.7350 24.5383 28.9094
31.8844 34.6416 33.8544 42.1455 61.3246 91.0674
110.1512 97.9157 90.8686 70.7396 57.1979 34.0683
13.7202 -10.7297 -28.9207 -52.0832 -75.4382 -89.2491
-98.9867 -96.3614 -93.0134 -76.9749 -56.0745 -44.5881
-37.8636 -25.3652 -14.4274 5.8072 36.7252 61.1362
76.5378 79.0620 73.6684 64.9410 55.1301 42.9733
37.2921 32.5644 25.9711 12.7543 -7.6773 -22.2473
-42.6025 -80.1754 -116.0876 -135.3093 -143.0986 -131.8349
-78.3578 8.1949 68.6781 81.9262 64.7547 69.7948
83.6810 76.9613 105.9453 102.7289 95.5083 87.3476
46.5996 23.4338 17.1628 -30.8954 -75.1032 -90.8653
-96.3956 -91.1384 -81.9207 -68.8747 -61.9003 -57.3349
-50.4632 -30.1583 -10.3549 6.8190 21.8998 37.8933
48.5792 60.4871 70.3851 67.0478 32.4994 18.0582
-14.1636 -61.7130 -96.1072 -119.2767 -109.1402 -62.9631
-30.4948 -2.2781 39.3053 61.5129 66.3809 61.0274
42.8400 26.5698 13.2580 -10.6709 -26.0072 -34.2639
-48.0362 -57.3746 -54.1784 -52.6453 -45.8351 -35.3813
-0.6609 20.2465 37.4617 62.6871 89.1653 86.9123
75.1297 47.9853 23.8747 10.3472 -20.9842 -58.9237
-77.4182 -88.6665 -99.8717 -104.7774 -82.4920 -45.2275
-9.9812 21.2621 26.4644 81.6354 100.3822 101.8938
102.1198 87.5561 57.5867 29.2502 8.4774 -8.1842
-23.0357 -34.1461 -37.1736 -29.4543 -20.3657 -13.7963
-15.3526 -8.2693 -9.2602 -17.0492 -21.3826 -28.8358
-35.0637 -45.7333 -47.6266 -47.3143 -44.1378 -36.5298
-22.5717 -6.5395 16.8073 39.6343 59.0666 72.6243
82.0957 82.0879 70.1839 44.6061 18.9969 -8.5313
-31.1175 -53.0354 -70.1634 -83.6683 -91.1852 -92.5879
-84.2518 -65.3213 -31.1428 1.1897 32.6789 63.4738
85.5308 99.2849 107.2969 102.9243 89.2879 66.1109
41.8030 19.6754 0.0527 -16.0693 -31.2935 -41.3306
-44.5697 -42.1972 -32.2822 -21.7065 -9.5521 5.3818
20.1593 35.6095 48.3682 55.5393 51.5616 37.5456
13.3153 -12.6548 -29.8105 -43.1259 -48.1804 -44.5887
-34.1907 -26.0646 -19.1530 -13.4100 -19.0670 -24.4157
-29.1528 -30.7679 -34.3014 -41.5863 -52.5845 -61.3131
-73.9825 -88.9390 -103.4622 -119.6838 -133.1595 -146.5063
-154.6685 -159.7019 -159.3420 -159.7396 -141.9083 -120.0499
-95.6364 -60.1690 -54.8689 -22.3134 5.6134 2.4857
4.3847 -0.1505 11.8904 28.7152 37.3482 24.8966
17.6193 6.4488 -9.9077 -23.5067 -36.4900 -46.6605
-52.0885 -45.8953 -30.4102 -10.8992 0.4248 8.4263
15.7386 27.7849 31.2334 38.4753 65.4933 76.4797
74.2367 76.3693 82.5806 98.7255 99.6823 94.8200
85.3145 70.8836 58.4519 45.0994 36.1267 27.1956
32.6677 32.1892 29.7745 26.4446 20.6723 16.5749
6.3606 -0.5021 -12.9489 -29.5975 -50.9913 -75.9545
-105.5099 -124.0989 -140.5055 -156.5355 -169.8084 -178.4456
-172.6117 -157.0129 -121.2021 -86.3640 -55.6526 -19.1980
9.9221 31.7588 50.9066 69.8709 61.3496 42.9425
17.3508 -3.6911 -10.9175 -14.1601 -18.4410 -22.7568
-24.1487 -21.3357 -11.9940 -11.6721 -11.0659 -3.5901
4.7589 15.2743 19.9100 25.1537 31.6525 33.1856
31.6716 27.9181 22.3208 17.5961 14.6847 15.2981
25.2424 31.5940 34.1979 34.0232 30.7519 22.0175
7.2834 -8.1848 -25.4537 -41.7876 -54.1918 -63.3510
-70.0433 -74.2535 -77.6853 -79.5407 -79.4203 -73.1091
-58.1300 -38.0363 -19.2105 -6.7043 4.3792 13.5269
19.0986 21.1244 18.0890 13.9192 11.2525 1.7201
-9.0267 -16.0934 -18.1129 -16.2316 -13.7991 -11.1666
-8.6731 -5.2120 0.5425 8.6631 20.4068 37.9159
55.8154 68.9510 78.3186 84.6168 86.5102 82.7335
74.1784 65.7624 62.1272 63.4083 69.8942 77.7203
83.2925 84.2750 82.1852 80.1727 74.5211 68.3065
61.2431 54.1166 46.4688 39.6643 36.1444 33.4796
27.9933 19.9644 10.2534 2.0009 -5.3458 -11.9020
-15.9192 -18.1169 -15.6126 -8.7535 1.2502 10.1719
25.9086 39.3755 53.6332 62.3522 67.3735 68.7366
71.6649 69.9985 70.5337 59.7742 73.9848 96.8779
102.9061 99.6212 89.6075 84.2975 78.1746 71.8857
64.4120 58.4128 47.3012 34.0434 25.0007 21.0469
3.5501 -6.4879 -7.3560 -1.2132 5.7823 19.8279
17.9846 7.0622 -7.8327 -18.8439 -31.5667 -46.8536
-63.8564 -80.2250 -93.2758 -101.5225 -108.7959 -119.4749
-132.0595 -144.9833 -154.7049 -157.4865 -150.4837 -135.6419
-112.4544 -90.0733 -72.1295 -61.2637 -54.9224 -50.4409
-43.8343 -32.7013 -16.4106 2.9490 19.5043 30.8163
26.7044 11.8604 1.5662 -4.6225 -10.3571 -10.1942
-2.6320 -0.3009 -2.3406 -8.2855 -14.7209 -18.8196
-21.0321 -21.8091 -19.2161 -15.5899 -14.7427 -17.2286
-20.9422 -26.3573 -31.3771 -35.6064 -41.1180 -47.4512
-52.3240 -56.3632 -58.8464 -61.4380 -62.9596 -62.4005
-60.0416 -55.3241 -48.1346 -39.3816 -30.9780 -26.1410
-25.7720 -26.6883 -29.7448 -32.0412 -32.4655 -31.7163
-30.8018 -31.7516 -36.1921 -41.7825 -48.7556 -56.1980
-61.6951 -65.1055 -66.7046 -66.5927 -67.6855 -69.7026
-73.8238 -77.2735 -79.2419 -74.0151 -64.9266 -54.0081
-37.1779 -20.6747 -8.1405 10.8075 37.4402 52.8167
61.7685 65.2402 62.5355 56.6766 51.9670 45.7551
39.0800 32.9628 28.6970 22.9775 15.2833 3.2082
-9.8559 -22.7226 -33.1656 -42.2104 -47.4342 -50.1784
-48.3255 -46.4153 -42.5610 -37.2483 -25.0649 -11.5775
-4.6925 8.0708 19.4657 32.7495 43.7377 53.2043
59.0831 62.8718 63.0091 61.2141 55.4455 44.7919
35.6550 31.7036 27.7209 24.6007 23.7387 25.6697
28.9422 33.5103 38.3808 43.0699 46.1236 46.9410
45.4529 41.9034 38.7139 35.7199 31.5051 27.0896
22.3791 17.8568 12.7417 7.8474 3.3058 0.3070
0.0231 2.3071 5.8641 9.4879 11.6820 12.2064
11.0782 9.0908 5.8050 2.5108 -1.5305 -4.0318
-5.7538 -6.0172 -6.0483 -5.7556 -5.8974 -5.4853
-5.6524 -6.3702 -7.3128 -4.9250 0.8820 9.8073
15.3388 21.7134 22.9707 20.3683 13.5119 7.8256
1.0751 -1.9554 -5.6241 -2.2273 -6.1407 -11.7383
-5.5937 -0.9459 6.8655 17.9436 27.8809 32.5277
37.6224 38.2678 33.5171 26.2238 18.6448 12.3405
0.7250 -7.7547 -5.1565 -30.3237 -36.6653 -43.0218
-47.1632 -52.3686 -50.6928 -41.4634 -33.7118 -23.5705
-14.0478 -5.3361 0.5823 3.3147 2.6814 -3.0550
-10.0771 -18.8549 -27.7023 -35.6621 -45.1716 -50.2840
-58.0363 -63.7494 -69.6195 -72.2744 -71.2744 -62.6539
-47.1911 -30.1276 -11.0363 7.4956 25.1055 42.4878
57.6525 68.7835 74.5428 76.2309 71.1381 60.2027
47.4877 35.5403 26.4252 17.3535 10.8227 7.5870
4.1250 1.8376 -0.6948 -4.1625 -4.2542 -0.6377
7.2110 18.2409 29.7800 40.7513 48.8481 51.5896
49.9162 44.7100 33.9671 20.3602 5.9392 -7.1092
-18.7066 -28.8472 -36.9691 -41.0783 -38.7185 -26.8522
-11.0736 8.8336 23.8143 36.5984 47.4423 52.3046
52.6914 50.7559 48.6486 45.7110 39.9149 35.2961
26.9087 17.6059 9.2759 2.0632 -3.3820 -6.4820
-7.6735 -6.5103 -2.6555 0.3747 -0.2254 -2.3906
-3.8624 -1.1237 7.3035 15.4437 24.4901 33.5967
38.4524 39.4523 37.8326 30.1564 16.7399 6.5453
-3.4762 -13.6495 -18.3211 -20.0759 -12.8789 -2.5050
4.7533 10.0220 12.5317 14.0980 13.2218 12.4916
11.6872 12.1980 13.5446 13.5476 14.7391 16.0791
17.2018 14.0035 9.7009 0.7481 0.7038 -7.9262
-24.1348 -32.3022 -37.1775 -39.2120 -39.0364 -35.6133
-31.0727 -26.6570 -21.7428 -23.5679 -26.4726 -28.6070
-19.8498 -12.5534 -13.6013 -15.3764 -24.4354 -34.3962
-43.0675 -50.1982 -55.6992 -57.5575 -56.0429 -54.0343
-55.1655 -54.8918 -58.7264 -61.4881 -58.7820 -47.6429
-38.2629 -27.8329 -18.9462 -9.7360 -2.4080 4.8810
2.5080 0.0803 1.4311 1.5621 1.6713 -0.4420
-2.5861 -6.3628 -8.1411 -12.7814 -22.4906 -26.3795
-29.1864 -30.2820 -25.5470 -23.5445 -22.7371 -22.4396
-21.4711 -16.8311 -13.0170 -15.8397 -15.8864 -16.2497
-15.8587 -13.0907 -11.9411 -11.6056 -12.7449 -16.6785
-23.3143 -30.6532 -36.8201 -40.4309 -40.4876 -37.2106
-29.3470 -20.9356 -14.0713 -8.1636 -2.3499 0.0087
-0.9427 -3.6836 -6.0219 -8.1005 -9.9757 -9.6508
-9.2284 -7.6844 -4.9152 -2.4661 -0.1244 1.5073
4.4346 4.9973 4.1003 2.9830 0.9011 0.2596
0.9430 2.7836 5.2640 7.4232 9.7799 10.5264
10.1782 9.3500 6.6945 5.1059 4.1464 3.2509
3.8721 4.7170 5.8997 7.3245 8.7655 10.7137
13.8547 17.3137 21.2810 25.3794 29.3754 32.7834
36.6907 39.0061 41.6770 43.9502 46.0052 48.3958
49.5107 50.8461 52.5080 54.3410 56.1399 57.4276
57.4454 55.7331 52.8043 48.7922 45.9506 42.8027
41.0279 38.3553 35.2309 31.7354 27.0876 23.6091
18.0323 16.0611 12.3985 12.6217 8.1900 3.9233
1.6996 -0.7055 4.7063 6.8555 10.2616 20.4059
29.4773 37.7883 43.4571 46.6668 44.5864 36.5801
26.1311 16.5869 10.7401 5.4041 3.2293 1.5309
0.5032 -2.1049 -6.8046 -10.6112 -12.3002 -9.9163
-2.6194 8.0535 18.8758 29.5532 40.3565 48.6458
