Archivo de aceleración parte de la Red Nacional de Acelerógrafos (RENAC) Ecuador
          
Evento: 201604162358
Fecha del evento UTM (aammdd):                  2016    4   16
Hora del registro UTM (hhmmss): 23   59 20.00
Estación:                                      AMNT0
Componente:                                        E
Frecuencia de muestreo (Hz):            1.000000e+02
Unidades: cm/s^2
_____________________________________________
3.4816 12.9617 22.8645 29.7117 31.7559 23.1535
8.3162 -10.4648 -23.5241 -27.1419 -21.9616 -14.9046
-10.3125 0.8845 14.2664 25.0863 26.7291 19.7887
11.6274 6.4429 -2.2833 -9.4680 -14.0652 -15.6442
-14.0286 -3.7685 3.5271 4.8612 3.3536 1.9772
4.8648 7.9721 9.5262 7.3182 9.0903 13.0136
16.8601 22.0911 27.1068 26.1520 15.4113 3.7628
-3.3775 -10.6563 -19.2407 -21.3368 -19.0593 -16.4341
-0.2966 16.5364 26.1607 31.8992 29.7314 20.8719
15.6115 14.1294 15.9464 15.8903 8.7032 -0.3926
-3.1380 -3.5595 -10.2247 -19.3906 -22.1984 -22.7905
-20.7307 -12.2572 0.3263 18.4346 37.1499 47.0489
44.2998 32.0335 14.7157 -2.1580 -13.6245 -15.6661
-11.4463 -5.0947 -0.9757 2.1592 7.6150 14.6543
18.8978 15.5435 7.9658 1.2568 -8.6934 -19.7288
-26.3460 -29.4634 -23.7096 -9.5519 -1.4035 4.2313
2.5693 -5.3846 -14.9538 -25.1750 -30.6770 -31.2648
-24.7685 -11.4646 -2.7678 -3.1488 -7.5320 -15.1516
-20.1695 -20.3167 -17.4171 -17.3101 -14.9397 -6.0687
8.5668 23.3793 30.0081 26.8733 17.1362 7.9046
5.8124 5.0869 -0.2958 -8.4370 -15.0170 -16.4048
-12.0729 -8.3873 -10.3692 -14.0613 -12.5708 -6.6248
-2.2552 0.3866 0.0712 -1.7137 0.2259 2.5552
3.1809 3.2138 1.5941 1.5326 4.6138 11.3207
15.8585 16.3547 14.5712 14.5386 16.0672 19.5405
20.4740 11.6243 -0.6954 -11.4208 -20.3149 -28.4046
-33.9333 -32.6673 -24.6195 -13.9576 -6.6365 -6.5817
-13.0580 -20.1086 -20.7885 -11.2625 -2.1499 -2.0768
-8.6823 -18.6466 -27.0577 -32.6358 -36.7650 -38.4501
-34.2831 -24.6141 -8.5672 6.9171 15.8339 17.3766
11.9403 7.3125 4.1096 -0.7095 -4.1576 -7.0550
-5.4584 7.7766 24.1041 31.3805 28.8069 10.4096
-12.8679 -25.7488 -30.9480 -28.1885 -20.6722 -7.2928
10.9051 27.8619 37.5411 41.7642 39.4247 25.8078
4.7904 -11.4328 -21.8291 -31.8809 -35.7296 -26.2641
-9.7966 9.9608 24.5994 24.1542 13.9396 -0.7203
-13.3185 -20.5535 -23.1356 -22.1712 -19.7279 -15.6047
-10.6855 -6.1023 -1.4122 -1.4557 -5.7429 -11.2671
-17.7053 -22.9137 -26.3733 -29.7312 -27.5044 -20.1833
-5.2599 12.5300 24.6185 30.9185 26.7785 12.7272
-0.2871 -8.1313 -11.0878 -7.2394 -2.0591 12.2155
30.8844 45.1350 46.6666 39.0490 24.0355 6.6425
-8.1841 -18.4706 -18.7512 -11.5495 -2.9981 -1.4164
-4.8160 -10.6960 -16.4489 -18.8427 -21.8183 -24.3728
-22.9176 -16.2588 -5.7702 6.3577 18.4220 28.0067
34.2677 32.2922 20.5061 3.7558 -11.7506 -18.6802
-14.5638 -2.1689 11.4510 17.4521 16.5819 12.0185
3.4500 -6.7172 -14.2140 -19.2989 -16.2846 -7.1087
0.8509 5.1918 10.4521 17.1586 20.4692 23.0842
17.5954 4.9487 -3.6699 -8.0219 -8.5054 -2.4588
7.3523 17.3754 25.0955 26.3318 17.3469 2.5084
-8.7887 -18.2635 -18.8160 -6.9636 2.2362 5.1174
1.6978 -6.2022 -13.1404 -17.7745 -16.6180 -17.0847
-18.2755 -16.1239 -11.1843 -3.7098 7.2021 17.9531
25.3158 28.8728 26.8954 19.6244 11.3071 4.2543
-1.6697 -3.8117 0.4821 7.9237 13.0579 16.0254
17.8398 20.4398 24.9366 29.7871 31.7501 28.0697
19.0890 11.2274 6.2404 4.0247 1.7239 -0.9529
-2.2135 -3.1492 -2.5745 1.1938 7.6269 10.6749
6.9338 -2.3371 -11.8676 -18.2485 -17.9244 -4.8481
12.6217 27.4350 36.2817 39.2436 34.6805 28.2480
23.9776 21.0097 17.4155 12.7434 11.1119 13.3160
16.9245 20.2143 23.2638 22.3635 16.1708 5.8969
-4.9536 -11.1550 -10.9811 -5.3700 4.9774 16.5486
25.6234 29.4618 26.0653 14.7310 1.1521 -8.0576
-14.8942 -21.2035 -30.2897 -40.4312 -48.0952 -47.2819
-33.5325 -17.2589 -5.3085 2.2191 6.8850 11.4561
16.7935 22.2163 27.6448 29.3611 27.0426 21.6311
15.7442 12.7635 12.5896 15.1246 20.6607 24.4356
19.4052 7.0741 -6.0529 -20.8423 -33.2981 -32.9359
-19.0019 -2.2711 9.2865 14.0639 8.5413 -3.8630
-18.8400 -35.6400 -46.6877 -47.0535 -36.6416 -18.5219
1.2807 11.6833 16.9644 16.7401 11.1824 4.5259
-4.9131 -15.9953 -26.0475 -31.0002 -32.1781 -26.6284
-17.9799 -9.2355 -1.3217 7.3052 13.9818 16.6607
13.1595 5.6052 -3.1384 -9.5910 -13.4274 -16.7511
-21.4155 -24.6559 -28.9695 -30.5104 -29.4389 -29.9066
-27.5770 -18.8325 -4.5000 9.4388 22.4007 29.2817
32.2295 33.1504 29.6960 17.2147 -2.5772 -24.6957
-42.7192 -51.8240 -45.6885 -28.7296 -11.5153 -1.6701
0.4878 1.0499 4.2132 11.7882 20.3951 28.0579
33.0694 32.6111 25.9252 18.4585 15.6579 17.9782
17.8721 10.3493 -0.5534 -10.2823 -19.6542 -27.5200
-26.9216 -22.4746 -13.8195 -9.3509 -14.8085 -20.3917
-18.3885 -12.6695 -8.5112 -1.4087 12.3485 23.3741
29.3326 33.5791 35.0091 35.1338 31.7918 22.3281
6.6697 -8.2636 -18.7249 -24.2964 -20.6765 -6.4837
5.5866 14.0246 22.7811 28.8994 31.4335 31.9785
30.6807 28.4123 19.6054 7.6958 -1.1862 -10.1034
-15.4294 -17.7554 -16.5020 -11.3421 -7.5456 -7.1502
-8.5421 -10.2341 -11.0792 -10.9170 -11.6530 -12.0187
-11.5219 -9.3218 -4.2234 1.2423 2.0230 -1.2021
-12.0493 -28.4913 -46.6257 -60.8991 -67.2237 -61.6291
-44.8935 -17.7515 12.8450 39.4168 59.2222 68.3770
67.8344 58.4733 47.2472 36.8719 28.4329 20.2467
9.6669 1.2675 0.0477 4.4587 11.7307 14.2977
5.6054 -7.6070 -23.3824 -42.9551 -60.1610 -66.9077
-60.8485 -40.4222 -10.3639 15.2384 39.7801 54.1546
56.8565 51.0089 46.7798 47.4553 48.9455 46.7214
41.9329 39.1677 39.1026 39.7211 38.4988 34.0176
29.0226 29.1653 34.3801 43.6579 52.6365 56.6167
56.7082 57.2022 57.7328 56.5625 47.2475 29.0730
7.3763 -18.1436 -52.3058 -79.5788 -92.5703 -92.3719
-82.8039 -67.0313 -54.7136 -50.7846 -58.9367 -80.9656
-101.5141 -120.3809 -134.6462 -144.4801 -145.6585 -138.5422
-114.5366 -80.6763 -49.4752 -26.8896 -15.9486 -22.3176
-42.1157 -54.6402 -61.6561 -61.0178 -56.8949 -51.6957
-42.4980 -31.1466 -21.8235 -12.6498 -10.1466 -15.6437
-27.3672 -38.7992 -45.8589 -49.5885 -48.2326 -42.0816
-30.1813 -14.7708 3.3084 19.3629 33.3956 43.9861
48.7881 48.8175 40.6219 22.8737 0.0306 -22.6377
-44.8702 -64.4036 -72.3872 -59.6955 -18.2234 29.1131
64.4840 94.8532 116.5481 135.6337 147.1788 158.8554
161.8527 167.1394 168.3778 168.2112 159.3180 145.8795
123.7295 92.7193 48.6925 1.1320 -34.6712 -66.8985
-69.5384 -38.8376 -2.1108 24.2533 46.4357 50.8974
42.4011 27.2703 17.9485 10.4209 5.5712 -3.0440
-5.9181 -0.4434 19.8308 51.2295 86.0071 125.1742
159.4178 182.4540 185.3304 170.8550 161.2591 158.1722
162.5458 169.6390 170.3714 161.9807 143.4587 121.4074
96.5887 62.4466 34.2523 7.2368 -21.8073 -44.0713
-56.9132 -61.1795 -56.4677 -49.8005 -45.9584 -50.8779
-62.2779 -76.5333 -93.3606 -108.7657 -113.5994 -109.7286
-94.9531 -73.0294 -55.7716 -44.2793 -39.2927 -35.6482
-33.9658 -33.5937 -37.2706 -43.4438 -54.2187 -67.5586
-82.8234 -98.5010 -119.0511 -148.2538 -187.4395 -229.1769
-260.1271 -270.9011 -270.3018 -257.5495 -242.3528 -203.7008
-140.4501 -82.4226 -23.7122 28.6295 64.5835 87.4110
90.8199 98.5555 105.7075 104.0860 104.6538 108.2854
108.4668 111.2848 100.8168 67.7558 25.3772 -24.5216
-72.5387 -128.8418 -192.4420 -245.5662 -287.0641 -313.4935
-324.4600 -333.8664 -340.8889 -348.3209 -363.6738 -368.5984
-338.5769 -269.6939 -162.7092 -89.8060 -60.4150 -51.0446
-60.0175 -105.5067 -136.4842 -137.7179 -139.0576 -131.4298
-113.6237 -99.0239 -88.6854 -78.7559 -64.9220 -49.5601
-41.8367 -31.2225 -16.6412 -0.0735 15.9237 29.3808
35.0558 34.2757 28.0087 22.7666 19.1233 19.9121
31.0737 47.8227 69.7245 90.9452 109.7235 120.4957
116.3319 85.9055 36.3409 20.3036 8.6662 0.1867
-15.7055 21.4353 98.9147 168.4384 236.7407 271.4643
284.3066 292.6712 281.9443 256.5680 220.0489 184.9533
155.4672 122.9644 91.3804 62.6591 42.0641 34.2334
40.7202 63.9974 88.5364 96.0865 102.2714 110.7160
116.1326 99.7214 71.1488 48.0377 32.3268 18.9539
4.9479 1.2680 15.3097 34.7020 48.2895 55.8015
61.7787 60.2770 58.1360 55.8843 54.6617 49.8999
40.0427 31.3177 17.4880 0.8394 -20.5657 -44.8882
-66.1119 -79.8897 -73.5010 -47.6055 -18.8164 12.8344
48.1699 78.5655 102.6653 107.4112 96.5350 76.9134
45.9020 23.7589 6.9520 -5.2223 -4.6602 13.5212
47.4261 80.3162 101.7854 117.6297 126.0549 110.8449
87.3075 61.1134 32.9728 11.1652 2.5068 8.5666
29.5328 57.4986 78.9783 89.1704 97.7827 86.5524
35.0986 6.5338 -8.9676 -12.6666 -0.6749 18.3115
47.4315 68.8182 81.6158 92.2915 104.4682 111.7497
110.5407 98.8169 88.5325 81.3928 73.0860 65.4693
53.3963 36.8703 24.1807 10.7775 1.1931 -4.4057
-0.0318 17.0449 39.0995 58.1114 76.5554 78.7106
75.6141 64.2519 39.1691 18.8925 5.1919 6.5512
17.7656 39.9833 59.7755 75.1290 80.1936 74.8631
56.4565 26.1623 -24.9734 -83.2492 -161.5455 -232.4095
-288.9576 -329.8391 -374.5831 -397.1195 -363.7575 -298.9419
-216.3131 -141.8954 -62.8607 15.4602 65.5775 79.4031
85.7882 86.3647 83.7359 82.4684 72.3158 40.6650
11.8226 -15.3239 -44.5168 -81.2268 -118.0265 -153.5436
-176.9983 -161.7464 -145.2707 -108.6746 -67.3965 -47.8336
-26.8093 0.1282 23.3227 37.7316 41.1003 24.1774
-3.6110 -30.7455 -44.8544 -60.9907 -67.5503 -53.2978
-17.2824 12.2630 34.4792 45.1603 47.7388 47.5514
49.5803 46.1241 36.1691 20.4159 -2.7470 -35.7226
-76.4638 -122.1842 -166.9611 -202.9607 -215.6269 -207.0326
-198.2252 -188.7307 -178.6093 -163.6833 -153.8914 -141.3135
-134.8001 -112.5635 -66.5355 -1.6519 49.7425 125.4400
188.4511 236.8141 271.3603 263.3365 258.3588 240.0920
203.9815 165.2801 131.0571 103.9046 82.9543 59.5428
33.3679 5.0741 -17.9597 -35.1887 -43.3890 -43.8375
-33.2392 -8.1588 20.1144 34.2202 44.9378 48.7217
64.3520 85.2219 114.4145 137.8290 156.8546 171.6988
174.0389 156.2886 128.0538 97.4735 60.9653 17.9472
-34.9516 -91.7721 -119.7649 -114.9800 -102.4184 -73.6656
-68.6406 -82.7524 -95.8858 -108.8956 -125.0828 -144.3969
-146.3326 -115.4567 -80.6983 -55.5217 -46.2868 -46.0853
-54.5516 -80.1161 -131.0642 -194.1922 -243.1317 -258.5596
-249.1451 -211.3634 -140.3572 -80.9990 -34.5735 3.4882
20.5221 5.5759 -40.4805 -61.9293 -80.8218 -91.5224
-105.6099 -120.1840 -141.7668 -125.1014 -85.5396 -33.2407
25.1522 75.3739 164.8888 205.4772 240.8933 248.9252
225.3917 187.3488 132.7089 86.5262 45.8977 -0.4234
-46.2571 -78.7683 -98.6291 -97.3281 -56.3575 17.2838
77.2718 123.2240 150.5027 128.7514 94.3752 30.9492
-25.7877 -66.6054 -125.4087 -211.5232 -268.3206 -264.5221
-243.2654 -183.1703 -143.8234 -109.4922 -72.1415 -38.3799
-31.1164 -30.6673 -39.6288 -22.0161 -17.9051 3.0853
123.9626 195.8885 240.9523 196.6500 110.9549 42.2580
-5.2467 -54.7974 -123.6232 -156.9117 -96.3679 37.8976
181.1207 339.7534 363.0807 361.0131 382.3270 318.3199
233.7443 177.3638 118.7227 67.9029 -2.7692 -99.2548
-134.9081 -97.3592 -43.0371 -4.2043 38.6816 33.4092
1.9326 -22.3489 -51.1175 -82.5834 -62.1335 -28.1650
7.7266 37.9714 45.1668 42.2877 30.1401 15.3693
9.4530 6.3811 13.6566 29.5066 50.9974 65.9738
97.2685 118.4816 136.5147 183.7624 187.6051 164.5728
129.9832 86.3604 37.9699 -29.2784 -90.0427 -160.8536
-231.1238 -292.2700 -288.0655 -234.8759 -180.3943 -100.4971
52.4055 232.9864 327.3947 313.5815 278.4517 280.6857
237.6268 161.4158 43.5039 -40.2392 -110.8859 -171.9838
-197.6728 -159.9846 -76.8413 22.1292 116.6080 185.6142
210.5327 207.8793 229.4142 244.7854 233.5572 192.2092
125.9382 93.7178 81.0731 63.2586 53.3252 42.5158
34.8089 36.6253 49.3162 61.1454 65.2429 64.8820
52.2169 37.0966 22.2788 4.2002 -16.0195 -37.2405
-56.0514 -67.6217 -68.4239 -61.4314 -25.5197 13.8536
44.7597 67.5324 88.4652 101.6951 84.3096 60.8969
41.6012 15.5486 -18.2400 -53.9038 -82.3978 -113.3220
-121.7544 -124.1865 -136.7907 -150.7005 -156.6033 -156.6956
-150.8069 -131.9759 -111.0622 -90.6099 -72.1266 -62.5172
-52.8165 -53.0080 -72.0531 -87.0253 -94.6060 -88.2863
-58.8775 -29.5986 3.3602 32.6837 51.1778 75.9968
96.5711 100.2495 79.7744 69.3467 58.0351 42.9052
22.0284 0.0445 10.2879 17.5394 27.9909 33.3106
50.8978 75.9057 110.1868 142.4975 166.6063 172.1649
139.6687 89.5852 47.3151 1.0188 -48.4891 -110.9402
-166.2396 -207.0873 -208.9355 -230.7731 -183.3979 -60.1375
3.4947 60.7002 95.1507 137.8996 170.4504 119.5569
50.5159 20.7849 -11.5644 -35.9937 -60.8762 -69.9903
-84.4607 -81.8978 -71.7929 -53.2092 -28.5512 2.2491
27.4153 38.7118 34.2138 18.7218 -10.5655 -45.1692
-76.4129 -106.7507 -125.3935 -143.9676 -151.9734 -136.7083
-80.2460 -32.4913 -4.7275 7.0925 3.4105 3.0115
-18.7188 -53.4008 -83.8296 -113.8592 -138.5982 -139.2958
-117.3250 -85.7156 -45.9310 1.7614 39.8291 59.6710
65.6137 54.8856 38.7088 18.5827 -2.6872 -18.1357
-34.6288 -46.1432 -59.7233 -63.5167 -47.3406 -13.3925
17.0064 44.6386 48.5751 37.3169 14.1857 -18.0329
-39.8432 -54.8835 -69.9592 -75.1359 -62.4945 -38.3791
-16.6068 6.7099 18.7523 22.9044 9.8892 -16.1524
-39.2074 -71.8439 -103.9534 -133.8169 -158.8997 -188.6774
-179.9812 -131.7948 -87.4987 -37.0696 -7.3836 25.2862
60.2799 36.1222 -9.7351 -47.6884 -70.3327 -87.8315
-95.8307 -87.6939 -75.3982 -50.6649 -19.0084 -10.7700
-14.3252 -22.3495 -26.3139 -37.6233 -48.9481 -57.3999
-61.9771 -66.0515 -73.5272 -86.2984 -100.5334 -113.7096
-128.3434 -140.5063 -136.0503 -114.2930 -85.8730 -59.3099
-33.5031 1.8981 40.4811 73.9786 111.1026 151.5896
180.4743 210.2464 246.4506 283.2461 301.4182 294.6383
224.8205 153.3029 107.4917 50.1552 -2.6872 -49.7089
-80.6091 -94.3081 -95.4932 -58.5259 1.2034 70.4339
136.7032 169.1694 184.6473 207.8058 206.6336 159.1637
114.2030 78.0518 45.6467 24.1002 5.1315 -21.9499
-31.5131 -32.9083 -28.8738 -26.6221 -21.2733 -15.6295
-8.8703 1.1498 -1.1871 3.4920 3.7318 -1.2887
-11.7248 -26.1673 -49.0278 -72.1833 -89.0019 -100.4867
-105.0845 -104.5464 -86.5005 -49.3600 -22.8589 -5.2944
9.9650 30.1046 45.8125 53.0182 64.5473 81.4469
96.2947 111.8395 129.0046 142.9855 149.0672 147.7434
133.8876 116.4352 101.1416 85.4757 74.5689 65.5285
61.0794 60.5122 62.5154 54.5432 45.7019 34.3271
18.7577 -0.7809 -21.6193 -43.4218 -65.8989 -88.2305
-106.2465 -115.2749 -108.7803 -90.6972 -59.5407 -16.3955
30.3237 80.8872 128.5987 165.8900 183.4233 180.5924
159.6832 140.7101 128.1694 110.7522 81.5638 51.5537
24.2327 -5.9648 -32.1766 -58.0820 -77.5528 -87.5725
-86.5263 -75.7529 -65.0115 -57.4045 -59.1759 -62.7230
-70.0431 -78.7504 -77.0093 -73.4949 -66.0332 -53.8478
-44.5946 -43.3481 -45.4205 -47.5355 -46.0935 -39.5216
-29.6074 -17.1357 -4.3879 1.8072 2.8873 3.7432
0.9798 -6.2193 -13.4735 -19.8008 -28.1408 -38.2970
-41.8552 -43.9225 -39.6607 -15.1562 21.7573 49.7577
77.5856 107.3133 111.5676 119.7436 122.7493 79.7234
32.1512 3.3088 -9.8467 -9.7718 -7.4253 -14.9916
-33.7999 -53.1676 -71.3037 -92.7909 -116.8739 -136.2341
-143.1319 -139.2763 -116.8769 -74.8184 -39.8865 -10.2035
24.5436 73.2732 84.5173 88.5521 105.5446 78.1234
45.1134 21.9096 4.2531 -1.9881 -8.0225 -25.4575
-45.5227 -63.3082 -77.8016 -91.4425 -97.5072 -85.5877
-51.4150 -19.9825 4.0781 30.4574 61.5431 100.4991
128.2740 149.8214 162.4430 166.3687 150.9453 124.1409
91.0337 61.6049 37.1510 13.7033 -10.4844 -32.8697
-42.1768 -37.8072 -21.9107 2.1759 28.4680 53.1332
85.1153 102.9811 107.1610 121.6538 104.7702 60.9064
32.6417 8.7583 -10.0575 -27.3935 -42.0066 -51.1345
-55.9931 -61.1893 -58.8818 -54.0891 -49.0707 -39.3658
-31.5734 -26.0651 -29.0411 -28.0189 -26.1410 -24.2874
-20.6711 -14.3957 -8.6014 -5.5283 -6.9394 -15.5786
-21.6127 -31.0809 -40.4036 -49.0039 -54.5448 -57.2711
-54.6752 -40.9639 -26.0783 -13.9754 -3.4724 5.3770
11.8038 18.1218 24.3112 30.3582 31.7276 32.2366
34.0584 34.3160 35.6002 37.8849 39.5238 36.5742
26.9367 10.3118 -3.2215 -5.7705 7.0336 19.5032
25.7685 27.7141 24.7294 11.9621 -6.2220 -23.7931
-43.0660 -59.9410 -72.2067 -77.6673 -72.3917 -44.5329
-13.1887 3.9128 16.2580 27.4745 38.8008 47.9364
52.6566 51.2871 49.1593 45.7237 42.7603 43.6642
45.2228 40.1954 28.0714 15.7598 -2.7262 -19.7840
-35.7051 -45.7668 -49.4257 -38.3954 -14.6421 5.9994
15.6186 14.6773 7.1239 -1.4009 -10.5698 -20.3878
-32.9605 -46.2243 -59.3339 -70.8823 -78.9468 -67.8140
-38.3162 -11.1595 13.6580 30.5350 36.7763 32.1995
14.9507 -10.0341 -29.8284 -53.1607 -69.5354 -79.0410
-86.6019 -93.9448 -96.5227 -92.0346 -85.0966 -81.8428
-79.0356 -77.9656 -77.0474 -74.3997 -71.0553 -68.5796
-68.3056 -65.5224 -68.2772 -67.1383 -68.4975 -60.8553
-60.4641 -64.3311 -68.7787 -73.7698 -77.2174 -80.1763
-80.8100 -79.1282 -75.0412 -68.6693 -60.0528 -51.4888
-42.0786 -32.9411 -24.8792 -19.0724 -19.5062 -27.1081
-32.5277 -35.4830 -35.3184 -30.5047 -20.3755 -9.1818
2.2079 11.4057 15.9729 14.4368 9.0958 -3.5144
-21.9206 -37.2937 -48.4691 -55.8744 -57.8827 -47.8069
-29.2489 -13.2478 2.5251 15.8446 23.7116 24.4044
14.3799 -7.1793 -26.6201 -41.9503 -52.2887 -55.7923
-48.9595 -33.5550 -17.7407 -5.5430 3.8891 10.1903
14.4068 18.1035 21.2476 23.5293 23.8066 21.9884
17.3813 9.9553 3.4152 -0.8622 -2.2148 -0.8928
1.7981 5.0259 9.2451 14.3355 18.6056 21.0747
23.2490 26.0046 29.4066 32.8494 33.1042 31.5627
29.8344 27.7245 28.1139 30.9844 36.4372 44.5074
54.1513 65.2062 75.7790 84.2381 83.1055 74.6353
61.4885 44.3779 26.2472 8.0454 -7.7947 -20.8357
-28.2941 -30.1468 -27.7374 -22.3940 -16.0176 -9.4669
-0.2692 12.3401 27.1360 38.5480 44.5398 46.3709
49.9453 54.9970 59.4868 61.1036 61.6594 61.2556
59.3061 51.4829 41.3942 26.3584 15.8047 5.5257
-17.4245 -31.1364 -36.7853 -31.1700 -16.4007 0.7306
14.6406 24.7671 27.6064 27.8354 29.2618 31.9395
36.0625 47.7991 53.8790 50.0274 42.4326 33.9454
27.3252 22.1233 18.4218 15.1734 12.3500 9.0919
7.5315 7.4350 11.5205 19.0784 27.5947 35.8169
43.6156 49.6278 53.8308 55.0791 53.4165 49.3586
44.6855 38.7506 31.3267 22.9399 14.5714 6.5188
-0.2944 -4.3739 -5.8452 -7.0756 -9.0239 -11.4467
-12.9526 -12.1270 -9.3614 -6.4028 -4.2024 -1.5856
1.0507 2.4678 2.0199 0.3079 -1.9753 -5.3782
-10.1565 -8.0838 -1.9148 6.1102 12.7253 14.9500
10.5923 2.6432 -6.6811 -13.3453 -20.8732 -24.6023
-20.4898 -13.8193 -5.3128 1.7121 2.0160 -4.6290
-11.3931 -23.6600 -37.5356 -50.7991 -59.5178 -63.2831
-66.1160 -57.6147 -43.1192 -21.8319 3.0209 20.2017
30.5317 34.8876 30.7131 20.9379 11.5873 2.5583
-5.0577 -9.7767 -11.4510 -10.1757 -4.8002 -0.5295
1.4746 1.5202 -0.0030 -1.5682 -4.1647 -5.6393
-6.7932 -7.3970 -7.8856 -8.9927 -12.3560 -14.1394
-14.4908 -19.8702 -26.5062 -35.8532 -42.8682 -45.7192
-43.5829 -39.5277 -35.2042 -31.6973 -29.4543 -28.2306
-28.4803 -26.4100 -17.8373 -6.5929 7.1747 21.3663
33.9612 43.7049 47.9361 45.8543 41.9838 35.9287
29.8086 23.1150 16.0340 8.0420 -1.6728 -11.1947
-18.3499 -22.8965 -27.1484 -29.5191 -27.9692 -22.3362
-14.9201 -7.3340 -1.0640 4.2695 9.6273 15.8446
18.5585 16.3170 8.7873 1.2285 -4.1976 -10.1889
-13.3906 -13.5078 -12.9214 -13.4910 -17.2308 -20.6130
-24.5192 -25.7792 -24.9836 -23.0671 -19.8420 -16.0779
-12.2289 -6.4230 0.8915 8.1754 17.8948 28.1945
36.8563 44.5149 48.9760 46.5256 38.7458 25.8283
10.0611 -4.3017 -20.4766 -37.3441 -54.1438 -63.1818
-67.9538 -69.9881 -65.8855 -49.5964 -25.6833 -9.1942
1.9662 9.0103 14.0491 15.9684 16.0934 15.1284
16.6588 18.7267 20.1318 19.9324 17.1009 11.6322
4.7147 -2.0668 -8.7613 -15.2175 -20.9059 -28.4027
-36.2079 -44.3579 -53.6585 -62.0144 -64.9955 -64.2610
-53.7244 -31.7891 -10.5447 7.2446 23.5242 40.0358
53.3667 57.0564 47.4828 30.1758 12.9882 1.2108
-9.8244 -21.7055 -33.7734 -43.7679 -47.6016 -41.2509
-24.6862 -6.5099 10.1732 26.3856 38.6445 43.7177
37.0448 19.2915 1.1526 -11.4126 -15.3572 -10.4251
3.3138 21.4694 41.1048 60.3001 80.1492 91.7354
93.3003 83.6010 66.5479 47.6374 25.8805 7.9434
-8.2088 -14.7867 -8.1692 0.7974 5.9309 12.6587
17.4664 31.6489 42.7683 42.8963 45.2838 46.7639
47.4989 46.7360 45.9424 46.8118 47.7885 47.2819
44.5739 40.5436 37.5215 36.6853 39.1199 44.0922
50.1379 53.9782 53.8406 52.1321 48.3845 41.4310
33.4351 26.7300 20.9547 15.7989 11.0126 8.6371
9.6554 12.5822 14.8354 13.9427 9.9684 3.9760
-2.0524 -8.1489 -13.3774 -16.2818 -16.7635 -15.8935
-13.3079 -9.8343 -5.5440 -1.6885 1.8490 4.4383
5.2732 5.0114 3.2757 -1.1486 -6.8268 -12.4577
-17.0993 -19.5653 -20.0501 -19.1681 -17.0729 -14.2504
-10.5151 -5.4124 0.0305 5.0960 9.9816 15.0920
19.4431 22.7477 24.7736 25.6919 25.4449 23.5772
20.5284 18.0180 16.0619 14.9865 13.6192 11.4913
7.5713 2.4336 -3.8991 -9.5714 -13.3097 -14.9729
-14.2330 -11.0559 -7.0571 -4.8881 -4.4414 -7.9378
-12.2398 -20.6017 -30.1115 -43.5686 -50.9382 -58.5285
-62.1670 -62.1760 -55.0024 -48.0606 -36.5728 -22.1411
-13.7519 -2.8756 5.4062 14.3815 20.2052 22.4290
