Archivo de aceleración parte de la Red Nacional de Acelerógrafos (RENAC) Ecuador
          
Evento: 201604162358
Fecha del evento UTM (aammdd):                  2016    4   16
Hora del registro UTM (hhmmss): 23   59 20.00
Estación:                                      APO1 
Componente:                                        N
Frecuencia de muestreo (Hz):            1.000000e+02
Unidades: cm/s^2
_____________________________________________
-3.0466 -6.2531 -9.4362 -12.8898 -15.6161 -17.8818
-19.8454 -21.0305 -22.0393 -22.8123 -22.6734 -22.0972
-21.5424 -20.0674 -17.0521 -13.1631 -8.8200 -4.1973
0.6595 6.0039 11.1880 15.2774 18.2424 20.6936
23.1709 24.7541 24.7336 23.9000 22.0120 18.9006
15.5636 12.2359 8.5287 4.3497 -0.2898 -4.6814
-8.1666 -11.2948 -13.7759 -15.2640 -15.9288 -15.7572
-16.1722 -17.8020 -19.0299 -19.2267 -19.0505 -17.9810
-15.6911 -12.6972 -9.1038 -5.5953 -1.9226 2.4782
5.8535 7.2996 8.2553 9.8002 12.3298 15.4132
17.8010 19.4886 21.1827 22.1310 21.2797 18.9124
15.3376 10.4062 5.2016 1.3499 -0.7918 -1.0463
-0.3909 -1.1918 -3.3046 -5.6328 -7.7670 -9.2896
-10.5176 -11.6392 -12.6667 -13.7828 -15.4649 -17.3874
-19.1720 -20.8867 -22.4046 -23.1179 -22.4158 -21.0238
-17.9535 -12.9456 -7.7383 -1.9622 4.1645 9.6600
15.0967 20.0915 23.0677 24.1334 23.9553 23.2224
22.5110 21.3390 20.0607 18.6975 16.1484 11.9042
6.3798 0.2801 -5.2387 -9.1501 -11.5771 -13.3011
-15.3048 -17.6162 -20.3621 -22.9038 -24.2445 -24.6231
-23.2693 -20.2950 -16.4937 -12.1338 -7.8374 -3.3377
1.3624 5.6533 8.7124 9.6821 9.1058 8.0989
7.8126 8.8653 10.3207 11.2037 11.1431 9.8526
7.7464 5.8396 4.3608 3.3399 3.6559 4.8568
4.0774 0.2033 -4.9137 -9.9635 -13.4282 -14.6813
-15.1755 -14.6133 -12.8259 -10.9891 -8.9761 -6.9827
-4.9464 -2.4886 -0.0402 1.9691 2.6591 3.4758
4.9098 5.5233 6.8827 9.1046 10.5134 10.3549
8.9022 6.8603 5.7349 6.4081 7.3376 8.8015
11.3655 14.3771 17.4894 19.9024 20.2493 19.6525
18.4973 15.3533 11.8149 7.0532 1.9884 -0.1728
-1.8539 -3.4642 -2.5374 -1.0558 0.0863 1.7413
2.4835 2.1860 1.1445 0.2634 0.1124 -0.6196
-1.9128 -3.9258 -7.0987 -9.8297 -11.1919 -11.8185
-11.9668 -11.3840 -10.2782 -9.2508 -7.6023 -4.3362
-0.8994 1.2255 2.5513 2.7089 0.8050 -2.4845
-5.2677 -5.8075 -3.5848 0.4730 5.1834 9.1749
11.8303 13.1842 12.0783 9.2383 6.2835 3.7708
1.9218 0.6808 0.5456 0.4244 -1.3742 -4.8790
-8.8958 -12.4314 -15.3423 -17.2751 -18.0155 -16.1749
-11.3014 -5.4078 0.6555 6.0065 9.1794 9.8441
8.5873 6.9071 6.3887 6.8241 7.1691 7.5886
7.8991 8.5154 8.7476 7.1317 5.4227 3.6828
0.7122 -3.0574 -6.7926 -8.9482 -9.3762 -9.8592
-10.9632 -12.1156 -12.9156 -12.9790 -11.8126 -8.1847
-2.4757 3.4076 7.7861 9.6565 9.0886 6.9124
5.0216 4.5619 4.9535 6.0677 7.4923 8.6103
10.5916 12.2223 11.1249 8.4871 6.7566 6.0256
4.9263 4.5897 4.9888 4.4349 4.1375 4.4284
2.6009 -0.8806 -3.8037 -6.5440 -8.6297 -10.5458
-12.1420 -12.2138 -12.2539 -13.0595 -14.4124 -15.8912
-16.3770 -15.3653 -14.3854 -14.5999 -15.0996 -15.0875
-13.2013 -9.6033 -5.5437 -0.6580 4.4189 8.4766
11.3893 13.7138 15.2569 16.6163 17.6848 16.8587
16.5687 17.5924 17.7537 17.2773 15.6792 13.6195
11.7277 9.4909 7.1161 4.0802 0.4971 -3.5719
-7.7275 -11.6687 -14.1190 -15.3526 -17.2752 -19.5027
-22.9301 -25.3720 -24.6923 -21.4337 -14.5182 -5.4815
3.8339 12.8212 20.2803 25.6750 30.2241 34.5028
37.8501 40.3535 41.0034 38.8104 34.4963 29.2954
23.4773 16.8425 9.5046 0.9322 -7.8136 -14.2470
-17.6680 -17.7789 -14.6638 -9.6793 -5.2524 -3.5778
-4.3405 -6.5764 -8.7880 -10.5278 -11.7670 -11.5740
-10.5260 -8.4347 -6.6249 -6.1168 -6.1513 -8.2893
-12.4747 -17.4201 -22.1035 -23.4331 -19.9022 -13.1545
-5.1248 2.6475 8.4209 11.9509 14.7452 16.8981
18.8300 21.2896 23.1777 23.3492 21.6709 17.7409
11.7485 5.2180 -1.6266 -7.4438 -11.9360 -17.3784
-23.0212 -28.2864 -33.5348 -37.3268 -38.9520 -38.4876
-35.7203 -30.3918 -23.6124 -16.7622 -9.7954 -3.8878
0.5037 5.4910 11.7483 18.2777 24.4986 29.2556
30.9815 30.6272 29.4374 27.2025 24.9573 22.0380
17.5196 12.8987 7.5561 2.0746 -1.4824 -3.8041
-5.6176 -7.9308 -11.5159 -16.4165 -21.4728 -25.1362
-27.1044 -26.8452 -24.1684 -18.9526 -13.5252 -9.2269
-6.0186 -5.2363 -5.4415 -6.1492 -6.8177 -5.9814
-4.2648 -1.1852 3.5495 8.6571 13.3712 16.6094
17.3636 15.6219 12.9236 11.5558 11.2472 11.7739
12.5469 12.6578 10.9553 6.8565 2.9703 -1.2478
-4.2613 -4.5886 -4.7368 -4.6193 -5.0576 -7.4650
-11.3475 -15.1395 -20.2816 -25.6932 -28.4866 -29.9085
-28.8745 -25.5077 -22.4327 -20.1689 -18.8505 -19.5293
-20.4495 -20.0384 -19.5759 -17.7410 -14.0637 -8.7994
-0.9618 8.4954 18.4831 27.8256 35.5681 41.7162
44.7250 44.0285 41.7106 38.0538 33.1923 29.4283
27.4199 25.0339 21.7006 17.8601 12.7945 7.5106
1.3643 -6.1004 -12.6783 -18.3361 -23.3887 -28.0292
-33.0193 -37.3689 -39.7978 -40.9651 -40.3376 -36.7778
-32.1588 -27.7374 -23.7505 -20.2112 -16.1442 -11.6379
-6.9229 -1.9281 3.6056 10.2889 17.3042 23.9306
30.5058 36.3836 39.1956 37.9639 33.9938 26.5273
17.1652 9.0012 1.2904 -5.8340 -11.5299 -15.9429
-18.2870 -18.3625 -17.6977 -17.4395 -18.5826 -20.2562
-21.3881 -22.7849 -22.9406 -20.9994 -19.5616 -18.9537
-16.9211 -14.4419 -11.5413 -7.0099 -3.3298 -1.4417
-1.0688 -2.5028 -4.0310 -3.7951 -2.6259 -1.8744
-0.7211 1.1055 3.9763 7.9939 13.2535 18.9569
23.4724 26.3311 25.9367 23.9712 21.4547 17.9499
14.6156 10.7667 7.0391 3.8447 -0.1245 -4.8125
-9.1686 -13.6851 -18.1429 -21.6188 -24.0430 -24.1297
-22.3927 -19.4548 -15.4875 -13.7784 -14.7602 -16.3677
-18.7621 -20.8478 -20.5252 -18.6381 -16.9962 -15.4587
-14.9132 -15.8792 -16.3053 -15.6666 -13.5939 -9.7162
-5.0393 0.5056 5.4985 9.0145 12.7272 16.2712
18.7691 20.4669 20.8007 21.0692 22.8231 24.7372
26.2719 27.0700 27.1297 26.4397 24.6579 22.9451
20.2776 15.9783 11.6148 7.2344 3.4470 0.7217
-1.3184 -2.7972 -5.3053 -7.7696 -9.4591 -10.6041
-9.4955 -7.5412 -6.4746 -6.8503 -8.0913 -10.2545
-12.9342 -14.2414 -15.1421 -15.9654 -17.2148 -19.6800
-22.3196 -23.9317 -24.2329 -23.3947 -20.5369 -16.2377
-11.1245 -5.9060 -1.9219 1.0608 2.9311 4.4211
5.6304 6.1255 6.5068 6.8387 7.6443 9.3142
11.4195 12.4274 11.9649 10.3053 7.0997 2.5543
-2.7295 -7.4241 -11.0884 -14.6212 -17.1955 -17.7605
-18.2286 -18.1736 -17.7139 -18.1083 -17.7624 -17.3019
-17.5294 -16.3676 -14.0479 -12.5486 -10.4358 -9.1948
-9.0839 -6.9291 -4.0453 -0.7139 3.5508 7.6832
11.5824 14.5063 15.3735 14.7152 12.9958 10.3758
7.4714 5.4304 5.0910 5.9339 7.9870 10.6107
12.3515 13.1543 13.2391 13.2111 14.0615 16.7038
19.8954 21.6809 22.2431 21.6417 20.1993 17.6790
15.1122 13.6838 12.5546 11.2521 10.4819 10.5826
10.1099 9.6185 8.4782 5.3733 2.6769 0.6704
-1.2961 -0.9259 2.8465 9.5326 17.4961 25.1780
32.5569 37.8687 40.1232 40.2565 37.8687 33.1490
28.1113 23.2358 17.4783 12.4033 10.5805 11.1530
12.8742 15.2517 16.9030 18.2829 20.3975 22.9467
26.3946 30.8235 33.8770 33.9740 30.8961 24.7657
17.1891 8.7277 0.0370 -8.4179 -16.5148 -22.1156
-25.1673 -25.7268 -24.2144 -23.5758 -23.9226 -24.4606
-26.1315 -28.6209 -31.1999 -33.7314 -35.0237 -34.4223
-32.5491 -29.2560 -23.6374 -16.3657 -8.1729 0.3407
6.6175 10.8468 15.1684 19.9795 25.7677 31.5914
35.5149 37.4235 37.5521 35.9493 34.6981 35.5792
36.2943 35.6388 33.4458 29.2687 23.7686 15.3035
5.0136 -6.3773 -21.7337 -38.6640 -54.3364 -69.2873
-82.0647 -91.3270 -97.1041 -99.3530 -99.6430 -98.6789
-95.5610 -90.2940 -83.2256 -74.7381 -64.1779 -53.9412
-45.5675 -36.7919 -28.9906 -21.6947 -14.5377 -7.3593
1.5785 12.3392 25.9399 39.1154 52.2620 66.7364
76.3828 81.9827 87.1705 90.4245 92.5345 95.1340
94.7815 89.3522 82.2223 73.2648 61.1792 48.8419
37.1349 27.1966 19.0037 10.1451 0.4110 -11.8275
-24.2768 -34.8006 -46.0657 -57.3047 -67.2262 -75.6820
-83.1420 -88.9508 -91.5662 -91.6417 -89.9177 -86.2180
-81.6419 -75.9142 -67.2151 -56.6465 -43.5913 -28.0027
-11.8837 3.6433 18.3433 33.6521 48.1843 61.6172
75.6598 88.4978 99.5624 109.5632 116.9169 122.0366
126.0347 128.9623 129.5647 127.4845 123.6645 115.5714
103.9949 91.0067 75.3650 56.8618 36.7876 17.5263
0.0889 -14.8778 -27.2990 -37.5702 -46.1780 -55.8655
-67.5567 -79.3299 -90.1475 -100.8830 -109.4758 -112.8334
-112.9630 -110.0884 -104.0214 -97.1777 -89.4809 -79.5985
-67.6286 -54.2628 -38.2090 -19.4989 -0.5099 18.2217
36.3817 52.0607 63.0489 68.8735 72.7606 74.9936
73.4160 68.6189 60.2367 48.2332 36.5392 25.5538
13.0506 4.9863 0.2750 -4.3310 -4.8261 -2.1940
1.3612 5.8907 13.4906 21.3944 28.6996 38.6845
47.1459 54.1173 63.4440 70.7073 76.8414 85.3559
92.8952 102.0093 113.3750 122.7446 131.4381 139.1760
143.7195 146.2173 146.5334 142.5017 133.9816 123.8149
112.3036 95.3165 74.4320 52.2179 27.9022 4.4033
-19.2980 -43.2426 -64.7891 -84.9995 -101.5838 -114.9952
-128.3377 -138.4466 -142.7915 -141.9916 -134.3926 -120.2502
-100.4874 -76.1214 -50.6617 -24.5568 2.1412 29.8833
57.6927 84.5323 112.1700 140.4027 166.9570 188.3291
205.4524 218.9356 229.3382 236.9567 239.8275 238.7189
231.9050 220.3089 206.8509 191.4758 172.5866 152.5021
133.5364 112.3489 87.5894 59.2458 27.7797 -9.2817
-50.9202 -93.5582 -135.2396 -171.2614 -202.0431 -225.8880
-241.5698 -253.6181 -262.1503 -268.8803 -273.4602 -273.4993
-273.5171 -272.1884 -264.7228 -253.3766 -237.1289 -210.6147
-180.7224 -153.1984 -124.5854 -97.6376 -68.5929 -35.1734
-1.7669 30.5542 65.4272 101.4621 132.1897 160.0839
177.7535 188.6997 199.0119 201.3503 202.3246 197.3662
185.7179 176.1311 167.5205 159.8489 141.5909 111.6865
78.2521 41.0070 -3.9144 -64.7283 -127.0807 -182.1297
-230.3545 -260.8323 -282.9168 -303.0088 -312.6413 -313.7685
-311.6455 -307.6791 -307.6409 -308.6423 -302.3245 -293.8687
-289.3942 -282.8917 -263.2781 -241.7717 -227.8521 -208.9471
-180.8982 -149.0796 -115.9846 -76.5120 -30.9893 18.9866
75.8173 138.0587 203.0609 263.2006 314.7326 351.3884
369.3079 373.0766 365.8674 354.6536 341.1079 325.3142
305.7509 289.0780 274.5738 246.7821 211.4624 171.6981
125.8704 83.7303 49.4101 11.1124 -36.8635 -87.1275
-144.5503 -198.2790 -236.4509 -270.9119 -305.1239 -335.8684
-350.9814 -346.9479 -333.0871 -312.7406 -291.9661 -274.8755
-261.5368 -245.1809 -214.4924 -169.8610 -136.9301 -122.6376
-102.2435 -74.9778 -49.3465 -24.0947 1.7799 29.9687
60.0381 86.3733 105.2271 121.6426 142.6549 166.6386
187.4597 202.0562 207.9143 205.8976 196.7900 189.8736
186.4666 181.7003 180.9143 176.8090 165.0050 144.2370
112.1723 76.4330 38.4616 -2.2231 -45.1855 -92.1507
-137.3341 -177.3838 -211.1390 -239.8341 -266.3539 -281.4427
-285.5536 -283.9229 -274.6727 -259.6548 -238.7087 -210.7978
-177.6478 -146.7345 -114.8591 -77.7250 -45.7955 -16.4440
18.2435 51.9008 84.2508 118.9999 150.0567 176.8497
198.5370 212.3875 215.8112 211.2854 206.5042 201.0991
194.4932 185.7614 175.5182 160.5795 141.7649 122.0505
98.3660 79.7500 71.0648 64.4290 59.3960 56.5205
53.0893 51.3411 47.1528 34.2840 13.9888 -12.5767
-42.1240 -70.9963 -98.3972 -122.1321 -139.9723 -148.6072
-146.5979 -138.2754 -129.1921 -122.4501 -117.8842 -114.0353
-107.3277 -96.8412 -85.0400 -70.4920 -51.5767 -28.5822
-1.7678 28.4480 59.5692 90.3267 120.1052 143.5109
161.8238 174.4549 178.0026 182.5265 188.8844 191.0988
194.0013 197.9145 197.0679 191.8466 182.6579 167.7574
148.8319 124.1451 94.7563 62.8137 27.6105 -9.8592
-50.9234 -94.8919 -138.3513 -177.8415 -212.9039 -237.3790
-248.2730 -254.0473 -249.2875 -229.0594 -203.5829 -175.1200
-138.0493 -96.2794 -49.5892 -3.7644 30.2593 61.0131
87.8732 105.7629 116.4489 128.1457 139.6737 147.8992
163.1101 173.9202 183.4342 200.5995 212.3279 224.1804
240.1577 250.4494 258.9490 266.0193 264.2021 258.1154
250.3300 237.4621 220.7706 202.6580 183.4453 162.0778
135.1328 104.8937 75.1524 45.8643 18.6583 -6.7782
-30.3479 -52.1937 -74.1943 -98.2237 -124.4340 -151.6793
-178.2998 -203.5143 -224.5788 -238.1208 -246.1113 -249.5817
-250.6660 -248.4069 -241.6051 -231.8365 -216.2350 -197.4157
-175.8888 -152.2687 -127.3945 -94.8748 -58.8353 -19.7087
23.4384 70.2469 118.5500 159.4817 194.5450 221.2504
241.2864 251.5137 255.4307 259.0315 257.0903 252.1477
233.6576 212.6938 195.8437 171.1700 145.3877 118.8399
97.2924 81.7887 62.6077 43.6187 24.7062 8.1694
-3.0873 -17.9421 -33.0010 -52.0814 -70.7739 -80.6292
-92.9003 -103.6796 -114.2669 -130.9995 -147.1391 -154.6038
-155.4700 -153.4886 -144.3503 -128.1912 -105.5631 -74.6947
-39.4337 -10.3918 12.4992 32.6406 46.4184 53.7954
57.2359 56.9944 50.2020 42.3644 36.2246 28.6853
22.0309 18.1633 19.9582 24.3767 28.5976 37.6427
49.1744 58.7519 66.5820 76.0812 88.9201 95.3051
93.0804 86.3308 73.7324 52.9309 28.5528 10.7778
-4.2420 -13.7832 -18.3472 -24.5308 -27.4044 -31.9442
-42.4205 -55.0981 -66.8872 -81.5220 -97.9217 -110.0614
-118.8724 -125.1269 -129.1072 -130.3939 -127.9380 -121.5727
-113.5308 -103.8918 -93.7941 -82.4144 -63.2259 -39.1396
-18.5553 -1.1346 13.5299 21.4300 22.4286 18.6832
15.2249 10.9994 3.4396 -5.9990 -18.2132 -27.2537
-34.1468 -40.7434 -39.4483 -32.0639 -21.9792 -5.5226
14.9759 32.9588 51.3314 69.9689 85.1798 97.5628
104.0009 104.3981 101.8713 96.4402 87.1499 77.4885
70.1329 64.6346 63.9763 66.8900 68.6457 67.2480
60.0938 41.7035 13.4941 -19.1990 -54.7723 -91.0104
-126.8541 -158.7072 -185.2364 -205.4738 -217.7767 -222.8293
-221.7636 -214.5413 -199.5393 -177.0212 -146.3252 -114.4228
-84.3981 -53.5240 -22.8560 5.4419 31.9664 57.9902
79.4527 98.8920 113.0605 117.4530 114.8488 101.9148
77.9739 49.8308 19.0425 -15.5061 -48.0380 -76.4292
-99.4600 -112.8453 -118.2206 -116.3633 -109.8058 -103.6950
-97.1105 -93.9320 -91.8080 -91.3372 -90.3041 -84.6911
-81.7653 -74.9011 -73.5426 -76.2885 -73.4979 -74.2196
-72.8797 -66.8034 -57.2800 -46.9651 -36.2538 -23.2284
-9.3023 4.6508 16.3625 25.5950 35.3869 41.5490
40.3127 44.6137 51.7185 53.1609 60.5398 74.0985
90.2306 110.8224 130.3549 148.4338 164.0028 176.0184
184.5003 186.0071 179.8999 167.4153 154.9987 142.2632
124.3931 100.3171 71.6136 39.6486 8.3643 -18.6777
-44.0116 -66.8942 -87.2649 -101.4754 -110.8534 -116.6827
-118.7218 -125.8070 -135.3602 -141.5690 -148.8164 -156.1786
-160.2596 -161.5706 -154.4900 -139.3285 -120.0776 -96.7139
-74.3003 -53.5762 -33.6175 -15.3698 1.0290 13.9798
24.7787 34.5006 44.5555 53.1026 60.0013 68.5215
76.4673 84.3813 92.5956 100.6598 108.7986 117.7775
129.7372 142.6423 154.6962 164.7631 170.2334 168.7882
158.4322 138.3290 108.2680 76.7860 48.7659 19.3156
-6.9339 -31.1134 -55.9046 -77.2600 -96.7757 -112.8585
-121.8914 -126.0872 -126.5599 -121.7236 -117.0384 -110.8436
-104.1072 -99.1860 -89.5359 -78.7258 -62.0902 -40.6108
-22.2820 -4.0371 13.3379 27.6472 37.9081 46.8096
54.0066 57.4154 60.8307 63.6941 66.5985 71.3844
75.1960 79.2285 78.9768 74.9274 70.4408 59.9812
49.1945 40.5298 29.8866 17.2519 4.1322 -11.3603
-32.0984 -52.6249 -70.7672 -89.0802 -106.2464 -120.5100
-132.3625 -141.3712 -147.2844 -148.1292 -141.9372 -131.3425
-117.0453 -99.0699 -81.2166 -63.9330 -47.6386 -34.6561
-20.7524 -7.3493 3.1903 13.2666 20.1635 22.8450
21.9592 16.9364 10.2736 7.7030 8.8974 12.9010
21.7951 32.9594 44.3308 52.8668 54.8919 54.4434
50.5815 40.3653 28.3263 14.8273 1.8895 -8.7593
-18.2408 -26.6388 -34.8466 -43.1150 -50.5899 -56.3073
-60.4163 -62.7659 -64.9934 -67.4018 -68.4563 -67.9249
-65.2340 -61.3087 -58.7819 -55.8682 -51.9755 -48.9416
-44.2433 -36.1148 -27.3382 -19.4428 -9.8075 -3.0300
2.2407 9.3781 13.2783 17.9887 25.0217 32.0770
37.0177 41.5799 47.7373 52.8365 59.4248 65.2643
70.6413 75.5820 79.0831 82.8546 84.2979 82.7353
75.3778 63.9701 48.5754 28.8592 8.5751 -13.4683
-32.9477 -48.7973 -63.4964 -72.5788 -76.0324 -75.7051
-71.9168 -67.5579 -61.6932 -54.2286 -46.6632 -37.7571
-29.1390 -21.0152 -14.0997 -11.1907 -9.3306 -8.1231
-8.0877 -8.2266 -10.8905 -12.8932 -11.3604 -8.4896
-4.1885 2.7922 10.8266 17.0316 21.0651 23.3699
23.3354 19.1798 11.2414 3.0169 -4.1187 -9.4734
-11.6244 -12.1615 -11.7205 -10.5242 -12.2370 -16.4048
-21.5040 -30.1640 -41.4450 -54.1310 -69.2441 -86.0261
-104.7400 -123.5639 -138.1632 -148.9584 -156.4054 -156.6441
-151.3854 -142.7683 -128.6912 -112.9385 -97.6661 -79.4613
-58.7987 -41.6176 -27.7987 -14.0675 -4.2225 2.4982
7.4752 10.2248 14.3777 20.4792 27.8096 36.3567
45.9370 54.2520 60.0179 63.7418 62.8057 59.3959
54.0767 45.5630 37.9165 31.1511 24.2962 17.5355
11.5160 7.1478 5.0005 5.0117 5.2531 5.5757
5.1739 3.2653 0.5427 -2.7272 -7.1756 -14.2319
-23.2043 -33.4820 -44.5624 -55.5916 -64.5714 -68.8558
-68.1211 -61.1300 -49.6785 -37.2181 -25.7386 -16.8287
-12.4083 -12.7626 -15.8162 -22.8464 -30.7017 -35.9389
-40.9235 -43.8447 -42.8741 -39.1082 -31.3349 -19.3314
-5.9041 7.3908 21.2637 34.9008 46.1137 55.2007
62.5898 66.6802 69.1314 71.1165 71.8213 74.4031
77.8697 79.7419 81.3988 82.0113 80.7116 77.5442
72.5513 66.8768 61.9883 57.3459 51.3059 45.7489
41.6501 35.5085 29.1142 26.5082 25.6243 25.9655
28.2676 30.2209 30.2190 26.4261 18.3497 8.0366
-3.7124 -17.1145 -30.5185 -42.0204 -52.6477 -62.8117
-71.6619 -80.0897 -87.9553 -93.1208 -96.4578 -98.2629
-96.0252 -91.3530 -85.9685 -80.0040 -73.2825 -63.3815
-52.7141 -42.7031 -30.6594 -18.5226 -6.5116 4.6994
14.3934 24.6897 33.7413 42.5001 51.3801 59.0285
66.0754 70.7178 72.3998 70.4893 64.3980 55.2784
43.6226 30.7837 17.9689 4.9127 -5.4395 -13.9914
-21.7246 -25.5996 -29.1250 -30.3194 -28.8294 -29.9101
-32.1002 -35.9454 -41.3952 -47.0856 -52.6314 -54.8393
-53.5741 -49.4100 -42.9514 -35.3833 -25.8897 -15.2577
-2.9810 10.1330 22.3938 34.0999 44.0345 50.5574
53.6455 54.6273 54.3252 53.4235 52.4482 52.2403
50.3718 46.8548 43.0955 35.8331 29.0593 22.7284
14.7919 8.3762 0.8444 -5.9863 -10.3909 -13.8715
-15.2580 -16.0710 -17.9740 -20.5642 -25.6578 -34.8549
-44.1974 -53.1567 -62.6922 -68.9476 -73.6785 -78.1969
-79.9535 -77.8398 -72.4236 -65.2955 -56.2477 -49.2716
-43.8330 -37.1599 -30.0943 -19.5872 -7.4709 5.6972
20.3720 33.7536 46.5291 58.2958 67.2746 73.1356
76.7141 74.9379 67.8974 58.8869 46.2885 33.1856
20.8567 8.1986 -1.3994 -9.0132 -15.1884 -18.0788
-19.1157 -19.6658 -18.6047 -15.3917 -10.3000 -2.7300
4.6872 11.9728 19.2323 24.8481 29.7813 34.2400
38.0003 40.1103 43.3559 46.1428 46.6985 47.3129
47.0565 45.9069 43.8714 41.4566 37.9489 34.3807
31.8138 29.8222 26.9346 22.0153 16.1590 7.4664
-2.7582 -14.2536 -26.9135 -37.6872 -48.4059 -58.4645
-65.1022 -67.6010 -65.5730 -57.8790 -45.1510 -29.1299
-10.7190 7.4579 24.5093 40.1333 55.2239 69.5304
82.4048 93.3109 100.0157 104.1909 105.3331 101.8189
95.3808 86.7431 74.1848 58.3212 40.4586 20.8766
1.6471 -17.5041 -38.2423 -59.9034 -78.8262 -94.6702
-109.6621 -120.7882 -128.8608 -136.8617 -140.2406 -139.9292
-135.9601 -127.3570 -118.0797 -105.9718 -91.3343 -76.3378
-60.9292 -44.9118 -29.0547 -14.2456 0.0926 13.5115
24.7402 34.8248 44.9916 54.0954 62.6080 71.3249
80.4762 87.9251 95.7403 105.3373 111.2319 118.0233
125.9281 131.9644 138.2169 140.3194 141.6210 139.6891
131.9466 120.5006 102.3900 84.1739 65.3491 44.8897
26.7921 8.8931 -9.0385 -26.9767 -45.6701 -62.4046
-77.3899 -93.4941 -105.7885 -115.6783 -125.0348 -128.9518
-130.6347 -129.6567 -122.8409 -113.4416 -102.2203 -87.7460
-73.2455 -59.3726 -45.9379 -36.1003 -26.6217 -17.5412
-9.9907 -1.3503 7.4477 17.2368 26.8963 36.1632
45.3230 53.8422 62.3045 68.9095 75.6637 81.4678
84.6509 88.4038 90.6406 90.9725 91.3361 88.8233
82.8989 76.1783 64.9813 49.6016 33.6820 13.1686
-8.3481 -28.0848 -49.9269 -69.3653 -83.2345 -95.1532
-102.9218 -104.9600 -105.2911 -102.7634 -97.1029 -90.3757
-82.5670 -73.9956 -65.2116 -57.1176 -50.7512 -44.9565
-38.8969 -31.0080 -19.8604 -6.5329 9.9619 26.0651
41.8868 59.2179 73.3156 84.5536 94.9432 104.3742
111.4398 116.3759 119.4490 121.1721 120.6425 117.7493
115.0285 109.9219 102.7602 95.5762 88.0406 78.6962
69.3696 61.1375 51.5685 43.4735 34.8731 24.8425
15.3107 3.9142 -7.6129 -19.3815 -31.4447 -42.5774
-52.5194 -59.6652 -65.3789 -69.2082 -70.5956 -71.2455
-71.8096 -72.4175 -72.7933 -72.8735 -72.4688 -71.9915
-69.5812 -64.4457 -57.6234 -48.2091 -38.0881 -27.3554
-15.2223 -3.1740 9.5456 22.1710 33.5573 43.7147
51.7742 57.6678 61.5456 62.9432 62.4546 60.5945
56.3447 51.3322 45.7845 39.1291 32.7767 26.0216
19.6693 14.0591 10.0601 7.0419 3.0644 -0.0284
-2.4656 -5.0931 -8.0339 -10.8375 -12.9382 -15.0837
-15.4529 -13.5536 -10.4031 -4.3902 3.7887 12.2324
20.4057 28.6377 37.1196 44.0668 49.0271 53.2927
55.6777 54.9393 53.5165 52.2130 50.6466 50.8237
53.1323 55.3775 58.2063 62.2827 65.5031 68.4187
71.7352 74.1864 75.0554 75.6390 75.5113 73.4153
