Archivo de aceleración parte de la Red Nacional de Acelerógrafos (RENAC) Ecuador
          
Evento: 201604162358
Fecha del evento UTM (aammdd):                  2016    4   16
Hora del registro UTM (hhmmss): 23   59 20.00
Estación:                                      APO1 
Componente:                                        Z
Frecuencia de muestreo (Hz):            1.000000e+02
Unidades: cm/s^2
_____________________________________________
0.0551 5.8698 8.6624 7.5803 3.9772 0.7524
-1.7659 -5.3309 -8.6087 -9.5058 -7.5489 -2.9827
2.4908 6.0270 6.1693 3.5264 -1.1030 -5.6702
-8.9907 -11.6103 -12.5808 -10.6565 -5.9787 -1.2387
0.6010 0.5871 0.9543 1.4591 2.5281 4.4757
7.0442 11.1642 15.0462 16.7604 15.9256 13.1024
10.4921 8.3791 6.1750 3.7413 1.8264 0.9219
0.4543 1.7781 5.2167 8.8301 10.2459 8.8171
5.6239 1.5420 -2.0054 -5.5100 -8.7180 -10.1282
-9.7759 -8.7096 -8.0719 -7.1767 -5.7098 -2.2991
4.0539 11.1170 15.9761 17.5360 17.2069 15.6768
13.8250 12.8499 12.4780 12.0764 10.9944 9.4038
7.1207 3.8495 0.7623 -2.0331 -4.3199 -5.7561
-6.2813 -6.0294 -6.2590 -6.2497 -6.5648 -7.6999
-7.8291 -7.7389 -9.9597 -13.9105 -16.5998 -17.4216
-15.8357 -9.8927 -0.7222 8.9680 18.1219 24.0834
25.5783 23.5759 17.7845 9.7499 1.3639 -5.2837
-7.3892 -5.0531 -1.2250 0.9373 1.1251 0.7876
0.8109 1.6085 2.8811 3.9065 5.5417 9.1867
13.2611 15.8454 15.8194 12.7118 8.1437 3.0495
-1.6329 -4.0611 -4.2814 -3.3099 -2.2139 -2.2167
-3.9866 -6.6574 -8.7927 -10.8071 -12.4878 -12.9173
-11.8975 -7.9430 -1.3660 3.6920 5.3290 5.9426
7.3974 9.4528 10.6482 9.0233 5.2491 2.7308
2.2967 1.4703 -1.3761 -5.1522 -6.9380 -6.5782
-7.0142 -7.8824 -7.2177 -5.1968 -1.9905 0.7146
2.0012 2.3396 0.2963 -2.3233 -4.8351 -7.7782
-8.1389 -5.7163 -2.4348 0.0686 2.4717 5.9772
10.4235 15.0576 18.8755 21.4840 21.2005 17.6605
11.3188 3.6802 -3.0947 -8.4269 -12.0022 -12.9494
-11.5076 -10.8476 -11.0642 -12.1193 -15.8916 -19.5236
-21.0500 -20.5284 -17.3232 -11.8078 -2.9412 6.8178
12.7171 14.5958 12.1361 4.5812 -4.3356 -11.7176
-16.7123 -16.2215 -10.7833 -3.4431 1.1194 -0.1272
-5.5170 -14.3269 -23.6583 -30.5838 -32.5323 -27.4362
-16.9493 -2.8044 12.6094 26.1351 35.4266 40.1499
40.5942 37.7153 33.5506 28.1236 22.8314 18.5534
14.1006 9.4312 3.7169 -2.8945 -8.2769 -12.1328
-15.8113 -17.9624 -18.2124 -18.4820 -19.1792 -20.9473
-22.7238 -22.9032 -20.4853 -13.6982 -2.8850 10.5385
23.2434 30.7276 32.1592 29.4820 23.7119 14.7803
4.8596 -2.8311 -6.5550 -6.0735 -2.2342 2.9409
7.4207 9.7744 7.8232 2.4575 -4.6065 -11.7951
-15.1482 -13.0687 -7.6779 -2.6710 0.4106 0.5984
-2.2127 -6.0222 -9.7230 -12.1967 -13.8281 -15.3917
-15.5664 -14.2780 -12.2766 -9.3288 -7.6490 -7.4277
-7.7215 -8.5572 -7.6861 -6.9238 -6.5213 -5.1092
-3.5029 -1.3146 0.4024 1.3227 0.6553 -1.3480
-2.3222 -1.8137 -1.1760 -1.0905 -1.2225 -1.8295
-2.3519 -1.2048 2.9785 8.8164 14.4545 17.2451
14.8272 10.2378 6.8624 5.5554 3.5540 -1.6686
-8.6136 -12.9409 -13.2458 -13.6837 -14.6151 -15.7000
-15.8505 -15.2993 -15.2091 -13.2393 -9.0272 -1.9817
5.2683 12.0646 17.8161 21.2965 22.9354 20.5027
16.7173 12.7089 11.0821 12.8335 14.0206 13.9695
10.0800 3.3385 -5.6470 -15.7834 -22.7434 -25.2756
-21.6808 -14.5126 -6.1183 1.3297 5.2052 6.4993
4.0628 0.4364 -2.5802 -5.1347 -5.2174 -2.1442
3.8732 10.9763 18.8463 23.9871 22.5332 14.6883
2.3050 -9.7204 -19.2088 -25.8843 -28.6685 -26.6522
-20.9258 -14.0216 -7.0384 -2.5530 -1.6857 -3.2586
-6.2287 -8.1939 -6.9705 -1.4356 5.8451 11.9730
16.7995 19.6590 20.5738 18.5677 12.9705 5.7596
-0.6937 -4.6752 -7.3134 -10.6674 -14.1516 -15.8202
-13.7834 -7.5997 1.4993 10.7405 15.4629 13.9886
8.5067 1.3924 -4.3274 -7.0121 -6.3623 -2.0619
3.8280 8.2000 9.1008 5.8797 -0.1720 -6.4208
-10.7788 -13.4607 -15.2595 -15.4352 -13.8706 -12.2280
-12.5320 -13.1669 -11.1366 -6.5035 -1.3246 2.5314
4.8015 4.9456 4.4817 4.6481 5.4690 7.2334
8.0161 5.7451 -0.6682 -8.3161 -14.7183 -17.9533
-16.5747 -12.9650 -6.0320 3.5197 10.9342 12.5564
8.1873 1.2794 -5.6954 -9.0532 -6.5414 0.6780
10.8748 19.5666 22.8407 20.4749 13.8421 4.8436
-3.3686 -9.4035 -12.5735 -11.1335 -6.8750 -1.2955
3.0486 3.4706 1.4934 -2.7642 -7.1650 -7.7171
-4.9776 -1.0110 2.6210 4.9934 6.0866 5.1291
3.0589 1.1811 -1.1410 -2.8459 -2.5364 -1.6728
-1.4078 -0.9913 -0.3322 2.1954 7.0972 12.0473
15.3251 15.4711 12.7074 7.7786 3.8464 2.9400
5.4109 12.0576 18.4654 23.5252 25.5676 21.7060
14.3919 6.7245 2.3415 -0.3404 -2.4172 -4.5850
-6.5874 -6.4944 -6.8058 -6.4377 -6.3568 -6.7426
-5.8204 -4.5068 -1.3062 2.6102 4.8060 4.4239
2.6465 0.8003 -1.5572 -4.6248 -8.2614 -9.1855
-5.3071 0.2770 4.4751 6.4096 7.4071 8.9363
11.6006 14.6143 15.5393 14.5474 11.9576 8.1378
5.0683 1.9364 -0.8840 -1.4622 -0.2397 2.0573
3.4713 3.5912 3.4620 1.5024 -2.5841 -7.9824
-12.5848 -14.5370 -15.5949 -17.1835 -18.5631 -17.9402
-14.9218 -10.0674 -4.2137 2.7045 9.4134 13.9267
16.6532 17.8059 18.8471 20.2480 22.4819 23.9032
22.5423 20.1393 18.5041 20.0017 22.3211 23.4348
25.1815 27.5344 28.2371 25.6752 21.4947 16.8384
11.9821 4.2497 -6.7708 -16.1747 -20.4546 -17.0912
-9.0632 0.8371 11.0182 18.3453 22.6792 22.1893
16.8849 9.4304 4.1103 3.9681 8.2146 15.0825
21.6362 25.8473 26.0509 20.8256 10.7524 0.0127
-8.4021 -13.0454 -14.2046 -14.0977 -12.7535 -11.7003
-11.7393 -12.3175 -11.8118 -9.7797 -7.5774 -4.3238
-0.3265 2.7273 4.4498 6.0609 8.7623 12.2149
14.6514 15.4025 14.4599 11.5697 7.9071 3.6505
-3.0446 -10.6320 -15.1917 -15.9093 -12.7254 -7.0558
-0.6554 6.9739 14.5343 19.1563 19.4929 15.3580
7.5540 -1.8824 -11.6126 -19.8303 -24.1074 -23.9122
-20.7125 -16.2206 -11.8450 -8.0168 -5.3879 -5.6240
-8.3422 -11.9193 -13.7943 -14.3149 -14.8001 -15.0808
-14.2953 -10.2506 -3.7973 4.3693 11.3655 17.3513
24.3159 30.5573 35.8690 37.6725 37.0329 34.8614
31.3028 27.3613 22.2792 17.9063 12.8911 8.2887
5.3056 2.5000 -1.0548 -7.2348 -12.7808 -16.1952
-16.6535 -12.9425 -8.4553 -5.1515 -3.7227 -3.3490
-4.2367 -7.4401 -11.5601 -14.0180 -12.4432 -7.1854
0.0944 7.8993 16.2054 24.2297 29.7404 32.2383
31.2101 28.0839 25.3323 22.5397 19.8867 16.9714
12.6887 9.3189 8.7361 10.5832 14.2700 17.3033
16.0447 10.4754 1.8719 -9.4637 -21.8813 -33.6185
-42.5464 -46.5577 -45.3901 -39.6432 -29.9809 -19.4290
-9.6839 -1.5629 3.3808 6.7060 8.5838 9.8351
10.3482 8.1869 5.2884 2.6567 1.7912 3.2963
4.5745 4.7678 3.4125 2.1213 1.3479 -0.1116
-2.1196 -1.9234 3.3066 10.9405 19.6937 27.7952
34.1527 37.8219 36.3689 30.0895 19.7049 9.5926
4.8823 6.2963 10.9945 17.4841 24.9163 29.9176
29.5113 23.0125 12.6530 2.6132 -3.7815 -6.2598
-5.3414 -2.2783 1.0999 3.5968 3.1646 -0.1690
-4.5837 -7.7425 -8.5429 -8.4378 -9.0234 -11.1718
-12.3068 -11.8336 -11.0379 -11.3353 -14.2998 -18.0322
-22.8578 -27.6712 -30.3671 -30.6441 -27.9789 -24.7913
-21.0171 -14.6818 -6.7402 1.4757 8.3603 12.5621
15.6438 18.6492 20.2835 20.2863 19.3093 18.9384
19.5333 20.9249 21.9791 19.6867 16.2918 14.3824
12.9657 10.9550 7.1538 2.1628 -3.2354 -7.3480
-8.1484 -5.5715 -1.4264 1.2667 3.1826 6.8360
11.9981 16.4723 18.4365 18.4840 17.5888 16.1702
14.7451 12.2742 7.7731 1.9064 -3.1451 -7.5449
-13.7602 -19.3258 -22.5394 -22.9577 -20.1150 -16.5490
-10.1338 -0.9948 6.8529 13.2588 17.7404 19.9827
20.0673 19.1739 18.8634 19.1414 19.0921 17.2106
13.3890 7.3103 -0.6805 -10.5855 -21.8597 -31.5108
-37.3320 -38.6186 -37.4166 -36.4665 -34.3405 -28.7211
-20.8287 -12.4808 -6.4561 -4.0233 -4.0632 -8.0122
-14.4265 -18.6831 -19.1498 -15.2826 -8.7391 -3.4087
-1.3506 -1.5848 -4.5317 -12.1433 -23.0847 -34.5988
-42.7430 -46.7180 -45.5709 -36.9748 -24.1835 -9.7699
3.2325 10.8432 14.1786 14.6285 11.5562 7.2670
4.1556 1.8967 0.8407 0.3471 -1.6070 -6.2503
-11.6439 -13.1378 -10.4726 -5.2408 1.4440 8.1391
16.3419 25.5859 31.5382 30.5798 23.3679 11.8371
-1.3493 -13.0382 -22.4542 -27.0445 -25.6427 -20.4267
-15.7396 -15.3975 -20.1273 -29.5851 -39.7903 -48.1827
-52.3399 -48.4495 -38.9276 -27.4191 -17.5829 -12.1094
-10.8042 -13.4601 -18.1285 -22.8695 -25.5663 -25.2512
-22.8565 -18.4901 -12.6977 -7.1842 -3.4091 -0.4809
0.9963 0.1662 -0.9856 -3.5560 -7.5588 -10.4806
-12.7190 -12.9803 -10.8375 -8.4122 -7.8386 -12.0962
-20.9042 -31.6429 -42.1865 -53.5695 -64.1707 -70.0774
-71.2534 -63.4577 -46.0731 -24.2627 -1.7998 19.1545
36.7631 47.5483 50.0880 43.3279 31.4922 18.1580
5.5433 0.5531 1.0942 5.2514 12.7068 18.9277
23.9811 25.5447 21.7937 13.3018 1.5516 -8.9241
-16.4306 -20.0793 -19.7391 -15.7780 -8.8999 -1.8702
3.5745 5.7507 5.2097 2.0416 -3.5593 -8.8282
-14.9757 -20.0848 -21.3686 -20.2800 -18.7025 -16.6490
-12.4973 -8.7027 -6.9262 -6.1816 -6.9913 -9.1647
-10.7803 -11.3957 -10.6167 -6.0951 2.0399 13.6432
25.1917 30.4765 31.7994 31.4434 29.4958 28.6936
29.6613 29.3230 29.5451 29.8975 28.6286 29.1213
31.3319 38.8180 45.7770 50.9531 57.5338 59.7676
60.2538 59.4757 57.1173 53.3115 48.9545 44.7796
37.8299 24.8508 10.3081 -2.3931 -19.9580 -36.1545
-50.5857 -66.1454 -74.2209 -76.3822 -74.4598 -70.0729
-64.0277 -53.9368 -40.4631 -27.3446 -16.4208 -4.0877
6.8073 16.8749 27.5384 36.2247 45.8321 55.7194
64.6353 73.2267 81.9975 84.4759 78.4883 72.3073
64.4299 57.8111 52.5328 47.2796 47.3363 47.7221
47.8049 44.9436 38.6204 27.8426 11.4862 0.5866
-6.2246 -6.0424 0.5699 2.0638 2.8521 -0.0892
-13.5183 -34.4316 -58.0770 -78.7867 -93.7143 -100.2624
-101.8409 -100.2122 -93.9002 -86.0999 -75.8807 -60.9215
-47.3902 -37.6888 -27.6128 -20.4400 -12.4268 -3.7024
2.8346 10.8859 18.1154 29.9456 43.9696 54.8218
62.4688 62.2717 52.0433 32.9947 15.5405 0.2169
-14.6001 -27.8348 -36.6763 -40.4031 -45.5438 -42.9985
-39.8239 -38.8608 -32.3359 -26.6802 -24.3274 -28.1071
-36.8110 -49.7855 -54.0923 -47.6604 -35.8916 -10.7950
15.6411 39.8629 57.6983 60.9398 56.4368 39.1555
16.2481 -4.8381 -24.7939 -36.6965 -48.2915 -57.1906
-57.6043 -55.9365 -52.7638 -44.6493 -32.7522 -19.9422
-0.8026 16.8581 25.2747 25.2757 21.3444 23.0112
31.2270 44.4358 57.2160 67.2557 74.7158 80.5156
81.3607 77.0761 72.4718 65.8000 57.5944 49.0383
39.6317 27.1183 13.8407 0.6097 -13.1512 -26.5692
-39.6524 -51.6573 -63.2049 -69.8785 -70.6417 -67.7171
-58.5317 -45.8472 -30.6017 -13.1000 0.4350 13.7200
28.0815 41.2298 53.7879 64.2720 72.0314 72.4200
66.8210 58.7223 48.6751 37.0987 23.1779 12.0041
6.2833 2.4273 1.9448 5.0804 10.7975 21.3141
34.9245 51.9902 65.7799 78.0433 89.2534 89.0043
86.6654 82.2386 73.3432 64.7258 53.0435 41.8278
30.1101 16.1075 6.9407 1.8084 -2.2354 -4.2527
-6.3508 -6.4818 -4.0862 -3.7060 -1.4917 1.6234
1.0155 0.0636 -1.9239 -4.2014 -2.8916 1.6941
6.5365 16.1393 27.8988 36.6640 44.3063 43.0997
35.1683 22.9366 8.9052 -0.2505 -7.0171 -9.9686
-13.9268 -21.8805 -29.9160 -40.4996 -48.9924 -54.5589
-56.5966 -53.1291 -48.7312 -33.5953 -10.1395 12.2165
35.8006 55.1206 62.4031 60.2186 55.7834 46.7310
35.6966 24.9280 16.6796 14.2422 13.9048 15.9694
14.5109 9.0867 1.4667 -10.9147 -25.5011 -41.7515
-56.5174 -67.5722 -70.8509 -64.3139 -52.3034 -34.8259
-16.4095 -2.2711 6.9710 8.8144 4.6479 -3.0706
-10.8495 -18.7595 -24.6402 -23.0487 -22.2120 -15.0764
0.7074 11.1004 24.1177 37.7494 43.2731 46.6811
46.6764 42.1353 38.7553 37.7904 34.4326 28.8885
28.1755 26.8833 21.0333 13.2897 2.3297 -9.5042
-21.7954 -31.4428 -38.7988 -46.5879 -53.3210 -56.8052
-56.2391 -53.6203 -47.5742 -42.2782 -38.1694 -32.2329
-27.8591 -26.0817 -27.0308 -28.9672 -31.1313 -29.8521
-24.2308 -17.2485 -5.8795 7.0346 20.3438 33.6102
41.5751 46.0716 44.1166 33.7292 19.8326 5.9294
-4.4143 -12.7008 -15.8410 -19.3289 -19.5436 -10.8555
-10.6324 -12.0742 -11.9515 -14.9123 -16.4396 -19.0453
-23.4330 -24.1534 -19.3027 -17.0029 -12.1225 -6.7679
-6.7633 -6.4630 -8.1577 -10.6276 -14.0207 -17.2687
-15.3137 -12.5983 -3.6109 7.1316 13.1768 23.6470
28.6408 32.3165 38.3775 40.4859 47.1261 54.5592
57.9290 59.1282 59.6265 53.6231 41.4936 31.4902
21.2943 9.9299 0.0073 -6.8151 -14.5754 -26.5980
-38.4737 -47.8831 -53.6560 -49.0061 -36.6544 -23.3155
-8.9754 5.0096 19.3924 29.8282 37.0447 41.9883
40.5623 37.0345 33.9622 30.7030 27.4103 23.2160
13.5890 1.6631 -15.5959 -34.5645 -53.9282 -67.1444
-68.6475 -80.3838 -58.7547 -40.4545 -64.0134 -60.7654
-56.1768 -54.1707 -46.3797 -46.9561 -44.2490 -42.5869
-38.0830 -31.7189 -21.8325 -9.0281 2.1392 10.4220
13.1922 10.5698 4.5469 -3.2850 -12.1199 -21.6493
-30.6163 -35.7923 -39.4633 -43.8473 -48.5725 -51.5342
-55.8048 -63.1459 -67.6145 -69.8604 -68.6705 -65.1501
-60.4760 -51.3956 -37.4478 -21.7979 -10.9001 -6.1880
-6.0876 -6.5152 -4.5026 0.8687 8.8345 18.2244
28.4343 37.7229 45.5270 51.0637 53.2501 50.8852
47.1417 40.7916 31.6378 27.2194 21.9169 12.6209
6.6519 3.2337 2.5049 3.0200 4.3930 6.8825
4.7091 0.8363 -5.3492 -11.7774 -18.0086 -21.0372
-16.8196 -10.6684 8.9342 24.4502 29.4906 39.5043
43.2106 39.4216 30.1144 20.9215 15.1292 11.7956
8.0149 4.5875 3.7276 -1.0729 -6.8680 -13.4097
-21.8672 -27.5090 -27.7265 -23.9616 -16.9802 -6.0890
3.0602 9.4159 14.4479 13.5201 6.3083 0.4509
-5.3043 -17.0536 -26.5783 -32.4776 -41.5059 -49.0840
-60.4140 -69.2369 -74.5793 -79.8809 -77.6219 -80.4498
-69.7705 -75.6242 -62.4842 -19.0828 -40.9499 -49.3637
-36.0760 -36.7862 -27.5645 -25.7434 -18.7741 -15.0529
-10.3909 -2.0170 9.0155 19.4578 24.5539 30.6865
31.4376 32.6034 30.9245 27.4441 23.3427 13.3755
3.8359 -4.3586 -8.5223 -10.5683 -10.5451 -8.9638
-6.0365 -1.6488 -0.1762 0.8482 2.9965 3.4213
10.9632 21.1396 28.7401 38.7519 34.6022 31.8766
19.6049 24.5327 39.4297 7.3853 -6.4789 -11.6140
-24.1729 -31.7315 -45.5297 -54.3479 -67.1532 -72.6853
-74.8150 -72.4519 -63.5779 -52.7731 -38.3019 -26.2198
-12.0666 1.6209 14.4597 25.0674 30.3578 34.0372
32.1845 28.3062 25.1716 18.4375 12.8218 6.1909
-3.3068 -12.6605 -24.0082 -33.9019 -40.7020 -45.2487
-46.0853 -43.4917 -40.0150 -36.3932 -31.4663 -27.2822
-24.2191 -20.3789 -12.3499 -1.8026 8.7828 17.7321
22.3207 23.1964 20.1045 15.5913 8.2233 -0.6842
-11.8646 -24.0098 -30.4204 -33.3393 -30.2121 -23.0133
-14.9052 -8.9390 -4.6740 -1.5022 -4.8348 -6.5694
-3.6337 -0.3671 6.2275 16.4049 22.5217 25.4732
26.6742 23.4067 18.6313 14.6136 12.0590 6.6450
-0.2369 -3.2004 -6.0004 -7.4385 -2.9931 -1.4843
-1.7437 -0.5482 -1.8190 -0.7852 -1.5884 -5.7289
-6.5711 -5.4351 -4.1820 1.0629 8.3008 14.5347
20.6971 22.7747 21.6964 19.8372 18.2076 17.8246
15.4188 11.7776 7.3331 2.6684 -0.6624 -2.4797
-0.5415 3.8007 10.3609 19.2526 28.5691 36.0273
41.1969 42.7019 38.4731 32.5404 26.3613 21.7951
16.6312 9.6740 3.0171 -6.0865 -15.0683 -23.2665
-30.2106 -34.6950 -35.3848 -31.6961 -24.3550 -12.9088
-2.5455 6.2234 12.5029 13.8834 15.1439 14.1865
12.5374 13.4623 13.0003 14.3259 14.8633 13.7273
11.4321 6.5647 1.8033 -4.4195 -7.2845 -6.7416
-3.4982 1.3776 6.1065 11.1756 13.5759 19.0364
23.1424 26.6220 33.1180 36.1244 39.4886 40.2584
36.8058 30.7067 23.1908 14.6152 4.0298 -4.4649
-12.1360 -17.7220 -20.1770 -20.9551 -19.9771 -17.0368
-13.0423 -7.2871 -2.2282 0.3468 2.6077 1.2709
0.8507 2.5919 4.1239 7.5160 11.6295 16.5192
20.1717 22.3999 21.4629 15.7440 8.3267 -1.8478
-11.7407 -18.4059 -24.0867 -24.6826 -20.9344 -15.5139
-6.0663 2.8616 9.5473 14.2893 14.9642 12.9005
9.0686 5.5826 3.1322 2.6813 4.4299 5.6273
8.2701 10.6490 10.1944 8.1121 3.2540 -0.9152
-3.6204 -6.5449 -7.5331 -7.2012 -7.4289 -8.9460
-12.0742 -15.6950 -17.8191 -19.0350 -19.0806 -19.1038
-20.2927 -22.7813 -25.4697 -25.5757 -25.8629 -28.1832
-31.2304 -34.8977 -39.4583 -40.6854 -38.5064 -35.4815
-30.5685 -26.9737 -23.9264 -19.4476 -14.9836 -10.6721
-5.1856 1.9213 12.1255 24.7654 35.5711 43.1874
46.9021 47.0164 41.7837 34.0187 25.4171 15.7399
10.2432 6.5452 5.5896 7.2471 7.7389 9.3108
10.1809 10.8419 13.2236 15.8478 18.7491 21.2358
23.1769 23.6482 23.8341 24.0656 24.0256 26.1154
26.9530 28.4701 31.6828 34.2439 36.5828 38.2115
38.4597 36.5754 36.3244 34.7617 31.8223 29.2204
25.0288 23.9728 25.4945 28.0789 30.9393 33.6890
36.6703 37.8797 38.4524 37.4726 34.9980 31.8931
28.6209 24.5427 20.9015 19.3016 15.3090 12.7888
9.2443 3.7698 0.7375 -2.8471 -3.1390 -2.3023
0.5990 5.4051 9.4135 17.4258 24.2900 27.7147
29.7868 27.4116 21.1545 13.3616 5.4814 -0.9627
-5.8589 -7.6651 -7.3518 -6.1294 -3.2374 -0.1241
4.4988 6.8349 4.3659 1.6766 -2.0976 -5.9750
-9.8775 -15.1465 -19.1224 -21.6128 -21.9167 -18.8676
-15.3519 -12.4980 -8.8241 -6.3161 -3.2995 1.6618
6.5265 11.2507 14.5164 16.1869 17.5832 18.4859
18.9302 21.0516 24.4140 29.2684 36.1224 42.5999
46.6622 47.0666 44.0426 37.3857 30.2445 22.4098
15.9165 13.6056 11.2843 12.7968 17.0107 19.2520
21.2330 19.2957 13.7692 6.9599 -1.4865 -5.9746
-6.1076 -3.2611 3.2043 9.4132 13.6159 14.2638
10.8039 4.3552 -4.2724 -10.3818 -13.7516 -14.4758
-8.8730 -2.7571 3.9992 11.0466 13.4068 15.3246
15.9726 14.8664 13.3139 11.1600 8.7542 7.3561
6.1188 4.6668 5.2682 2.6812 1.1687 0.8777
-1.1070 0.5319 0.8601 1.8659 1.4290 -2.0672
-4.4684 -9.2326 -12.0446 -12.4192 -13.2317 -14.7107
-16.1023 -18.1790 -23.0455 -25.9942 -27.6387 -26.5241
-21.5916 -15.1745 -6.5868 1.4134 11.4085 19.1651
23.7537 27.6004 26.1939 24.2613 18.9569 10.8889
4.9924 -2.6675 -9.0446 -13.2287 -17.4091 -21.4139
-25.1723 -29.0506 -33.7432 -36.3117 -37.0572 -35.8627
-31.1412 -24.6256 -16.8123 -12.1977 -9.7296 -6.9212
-5.5101 -2.1282 3.3277 9.1442 14.2031 18.3194
19.2890 17.4354 15.3466 11.8420 7.4487 3.9869
2.1639 0.2145 0.1299 -0.4669 -2.7974 -4.8350
-8.5191 -11.5477 -13.2414 -12.6781 -10.1226 -5.6679
-0.8925 2.6641 4.6609 2.3434 -0.5253 -3.8830
-7.5429 -11.8098 -17.4524 -20.9059 -24.5081 -26.5096
-27.6362 -28.9628 -29.4406 -29.7157 -25.9731 -22.0335
-17.8019 -10.7183 -5.0747 0.6917 6.4460 8.5311
7.4908 2.2832 -5.4753 -12.8136 -21.0731 -27.5961
-30.7893 -29.3661 -24.5805 -18.8959 -12.9418 -11.2722
-11.8690 -12.3477 -16.0764 -20.4901 -20.3665 -18.4673
-16.5281 -12.2501 -7.9032 -4.8355 -1.4192 0.8360
-1.4332 -5.9129 -10.9923 -17.4419 -19.9313 -19.9778
-20.3087 -18.4291 -17.8183 -18.2506 -20.3078 -23.6776
-28.7839 -36.4606 -41.1839 -45.7426 -47.7348 -44.2571
-38.6386 -30.4850 -22.4941 -15.1679 -8.6969 -3.9122
1.2257 5.2370 6.2149 8.1634 9.4992 9.3895
12.6432 14.4150 13.8824 12.8486 9.8572 6.0802
2.8712 1.5456 -0.9197 -1.8670 -0.2801 1.5215
3.5722 3.3937 2.9131 1.3718 -1.3017 -5.2051
-11.1295 -17.0241 -22.9206 -26.2978 -28.0427 -28.9481
-29.9167 -31.0592 -28.9332 -27.1548 -24.0890 -19.0161
-15.4827 -11.5356 -6.8383 -1.0589 3.8271 7.6124
10.1242 11.0901 12.5608 11.5419 10.3437 9.5758
7.9221 8.7457 8.3590 6.5165 3.6013 -0.6712
-6.5611 -14.5092 -22.7139 -32.2368 -38.6836 -41.7810
-40.9490 -35.8696 -30.4658 -24.4522 -16.8843 -10.0201
-3.9749 3.7948 7.9213 13.4711 19.8463 23.1055
29.8544 34.8037 38.3985 39.8310 37.0310 32.4862
24.4730 15.5916 6.4340 -1.7158 -7.2618 -9.6565
-9.9316 -8.9397 -5.5569 -2.6556 1.0378 6.5689
12.6114 19.5239 27.9526 36.4966 43.9381 50.9771
54.8117 57.3644 58.2206 57.7967 58.8630 58.8723
60.0780 60.8942 61.0662 61.6202 57.8145 52.5594
45.2406 36.4410 31.8887 27.6823 26.4217 26.2265
25.3695 25.8687 22.1093 18.7330 13.7792 7.2329
2.8898 -0.8630 -0.5990 0.9730 3.8799 7.4347
9.6286 11.8289 12.6591 14.9152 17.2151 18.5333
21.3109 23.9715 27.8238 32.6875 36.6801 39.8752
41.4509 41.0168 39.2264 36.9349 34.6276 31.8537
29.3791 28.8529 28.8418 29.1848 30.6304 31.6418
34.0327 36.8095 38.5999 40.7687 42.6577 46.0767
48.1628 48.5086 47.9239 44.4360 40.9779 36.2964
30.2772 24.1056 17.9637 12.9522 9.1260 8.0885
8.1722 5.9468 2.4580 -1.6881 -7.1569 -11.5437
-14.5928 -16.4474 -15.2947 -11.8105 -7.7872 -4.1106
-1.4891 -1.1516 -1.6657 -1.5969 -0.9805 0.5115
3.0391 7.2679 11.6129 15.4019 18.3330 19.7813
18.4929 15.6855 11.7393 5.7350 1.9804 -3.5573
-9.7038 -12.3030 -14.8659 -16.5150 -17.2057 -17.8917
-20.7224 -23.6292 -24.9121 -27.6925 -28.9326 -28.0123
-27.5103 -26.0722 -24.3719 -22.3751 -19.5975 -15.7628
-10.3200 -4.8567 0.6484 5.8505 10.0003 13.8256
15.7620 15.0239 13.8080 10.8267 7.2031 3.7022
-0.6074 -3.1257 -5.7918 -8.0461 -8.6661 -9.4246
-9.2108 -8.5359 -8.3946 -7.4064 -5.0415 -1.3686
4.5920 10.2421 14.7833 17.8789 17.3174 15.4275
11.4879 5.9084 0.3354 -5.0953 -8.9151 -12.3816
-14.1859 -15.9345 -17.9099 -18.8618 -21.3234 -23.1770
-25.8970 -27.9078 -28.4683 -29.2873 -27.6251 -26.0448
-23.8165 -21.1002 -18.6786 -15.6090 -13.6503 -12.7904
-13.5248 -13.9078 -13.0014 -12.7839 -12.0709 -10.7239
-10.1828 -8.5449 -6.7972 -5.4297 -2.9496 -0.8905
1.9355 5.3091 8.2941 11.5040 14.0214 15.9215
16.9004 16.7498 16.4142 15.5748 14.5504 14.2529
13.7974 13.2173 12.5685 10.9789 8.7441 6.2695
